Point No.,Normal Force [N],Gap [mm],Time [s]
1,7.300080,10.7074,2000
2,7.298789,10.7074,2000
3,7.298869,10.7074,2000
4,7.298836,10.7074,2000
5,7.299032,10.7074,2000
6,7.299599,10.7074,2000
7,7.283176,10.7074,2000
8,7.273660,10.7080,2000
9,7.269704,10.7080,2000
10,7.237518,10.7105,2000
11,7.200988,10.7105,2000
12,7.176507,10.7136,2000
13,7.110541,10.7136,2000
14,7.078532,10.7179,2000
15,7.019463,10.7179,2000
16,6.963096,10.7235,2000
17,6.934347,10.7235,2000
18,6.859444,10.7278,2000
19,6.840824,10.7278,2000
20,6.740571,10.7334,2000
21,6.747651,10.7334,2000
22,6.663634,10.7377,2000
23,6.635156,10.7377,2000
24,6.559902,10.7432,2000
25,6.563232,10.7432,2000
26,6.465771,10.7476,2000
27,6.474314,10.7476,2000
28,6.373361,10.7531,2000
29,6.393964,10.7531,2000
30,6.281927,10.7575,2000
31,6.292672,10.7575,2000
32,6.206038,10.7630,2000
33,6.217598,10.7630,2000
34,6.119463,10.7674,2000
35,6.131579,10.7674,2000
36,6.028642,10.7729,2000
37,6.059223,10.7729,2000
38,5.952950,10.7773,2000
39,5.974039,10.7773,2000
40,5.881142,10.7828,2000
41,5.906201,10.7829,2000
42,5.802025,10.7872,2000
43,5.824836,10.7872,2000
44,5.729170,10.7928,2000
45,5.752140,10.7928,2000
46,5.666144,10.7971,2000
47,5.680216,10.7971,2000
48,5.600510,10.8027,2000
49,5.622002,10.8027,2000
50,5.521198,10.8070,2000
51,5.543137,10.8070,2000
52,5.449227,10.8126,2000
53,5.479576,10.8126,2000
54,5.374062,10.8169,2000
55,5.396087,10.8169,2000
56,5.319538,10.8225,2000
57,5.336381,10.8225,2000
58,5.244648,10.8268,2000
59,5.263288,10.8269,2000
60,5.174127,10.8324,2000
61,5.213464,10.8325,2000
62,5.103718,10.8368,2000
63,5.134866,10.8368,2000
64,5.052882,10.8417,2000
65,5.075385,10.8417,2000
66,4.986800,10.8467,2000
67,5.011906,10.8467,2000
68,4.915642,10.8523,2000
69,4.953398,10.8523,2000
70,4.851902,10.8566,2000
71,4.878897,10.8566,2000
72,4.800467,10.8616,2000
73,4.825562,10.8616,2000
74,4.738790,10.8665,2000
75,4.764017,10.8666,2000
76,4.666448,10.8721,2000
77,4.706426,10.8722,2000
78,4.610007,10.8765,2000
79,4.635235,10.8765,2000
80,4.569736,10.8814,2000
81,4.596896,10.8815,2000
82,4.511579,10.8864,2000
83,4.536759,10.8864,2000
84,4.443120,10.8920,2000
85,4.481039,10.8920,2000
86,4.386659,10.8963,2000
87,4.405686,10.8964,2000
88,4.341324,10.9013,2000
89,4.365837,10.9013,2000
90,4.281226,10.9063,2000
91,4.307407,10.9063,2000
92,4.219004,10.9119,2000
93,4.259870,10.9119,2000
94,4.170704,10.9162,2000
95,4.193899,10.9162,2000
96,4.129661,10.9212,2000
97,4.153687,10.9212,2000
98,4.063737,10.9261,2000
99,4.099533,10.9262,2000
100,4.019846,10.9317,2000
101,4.057011,10.9318,2000
102,3.976545,10.9361,2000
103,3.996512,10.9361,2000
104,3.945251,10.9411,2000
105,3.966841,10.9411,2000
106,3.902474,10.9461,2000
107,3.930246,10.9461,2000
108,3.846098,10.9516,2000
109,3.893182,10.9517,2000
110,3.802905,10.9560,2000
111,3.829778,10.9560,2000
112,3.764415,10.9610,2000
113,3.802927,10.9610,2000
114,3.720529,10.9659,2000
115,3.747852,10.9660,2000
116,3.674011,10.9715,2000
117,3.714706,10.9716,2000
118,3.625387,10.9759,2000
119,3.659229,10.9759,2000
120,3.592139,10.9809,2000
121,3.628324,10.9809,2000
122,3.540524,10.9858,2000
123,3.577690,10.9859,2000
124,3.505841,10.9914,2000
125,3.543499,10.9915,2000
126,3.458929,10.9958,2000
127,3.494099,10.9958,2000
128,3.429456,10.9958,2000
129,3.469390,11.0008,2000
130,3.388810,11.0007,2000
131,3.426654,11.0058,2000
132,3.348278,11.0114,2000
133,3.399547,11.0114,2000
134,3.304798,11.0157,2000
135,3.342778,11.0157,2000
136,3.273046,11.0207,2000
137,3.318270,11.0207,2000
138,3.236053,11.0257,2000
139,3.268038,11.0257,2000
140,3.195474,11.0306,2000
141,3.249844,11.0307,2000
142,3.158724,11.0356,2000
143,3.189984,11.0356,2000
144,3.126860,11.0406,2000
145,3.168936,11.0406,2000
146,3.095133,11.0406,2001
147,3.132009,11.0456,2001
148,3.057250,11.0456,2001
149,3.105317,11.0512,2001
150,3.024980,11.0555,2001
151,3.054983,11.0556,2001
152,3.001828,11.0605,2001
153,3.038710,11.0605,2001
154,2.966233,11.0655,2001
155,3.000959,11.0655,2001
156,2.932738,11.0705,2001
157,2.981305,11.0705,2001
158,2.894440,11.0755,2001
159,2.933117,11.0755,2001
160,2.869245,11.0804,2001
161,2.909867,11.0805,2001
162,2.842731,11.0854,2001
163,2.876282,11.0854,2001
164,2.804073,11.0904,2001
165,2.857166,11.0904,2001
166,2.769338,11.0904,2001
167,2.807730,11.0954,2001
168,2.750250,11.0954,2001
169,2.789198,11.1004,2001
170,2.719753,11.1004,2001
171,2.753584,11.1054,2001
172,2.683849,11.1103,2001
173,2.740790,11.1104,2001
174,2.655384,11.1153,2001
175,2.697026,11.1153,2001
176,2.638106,11.1203,2001
177,2.672037,11.1203,2001
178,2.611583,11.1247,2001
179,2.641543,11.1247,2001
180,2.580654,11.1303,2001
181,2.631868,11.1303,2001
182,2.545532,11.1353,2001
183,2.588024,11.1353,2001
184,2.529577,11.1352,2001
185,2.565541,11.1403,2001
186,2.498480,11.1402,2001
187,2.534506,11.1452,2001
188,2.468936,11.1452,2001
189,2.527360,11.1502,2001
190,2.438228,11.1502,2001
191,2.486191,11.1552,2001
192,2.426369,11.1602,2001
193,2.468062,11.1602,2001
194,2.397480,11.1645,2001
195,2.434038,11.1646,2001
196,2.367300,11.1701,2001
197,2.421941,11.1702,2001
198,2.338784,11.1751,2001
199,2.384405,11.1752,2001
200,2.324597,11.1801,2001
201,2.363250,11.1801,2001
202,2.299869,11.1801,2001
203,2.333084,11.1845,2001
204,2.270937,11.1845,2001
205,2.318279,11.1901,2001
206,2.245209,11.1901,2001
207,2.279191,11.1951,2001
208,2.227319,11.1951,2001
209,2.263685,11.2001,2001
210,2.213696,11.2044,2001
211,2.231948,11.2044,2001
212,2.190250,11.2100,2001
213,2.226365,11.2101,2001
214,2.164648,11.2150,2001
215,2.194506,11.2150,2001
216,2.149839,11.2200,2001
217,2.178480,11.2200,2001
218,2.123138,11.2244,2001
219,2.159351,11.2244,2001
220,2.102587,11.2300,2001
221,2.148202,11.2300,2001
222,2.071087,11.2300,2001
223,2.108548,11.2350,2001
224,2.050433,11.2350,2001
225,2.083699,11.2400,2001
226,2.026958,11.2399,2001
227,2.057648,11.2450,2001
228,1.996456,11.2449,2001
229,2.046547,11.2500,2001
230,1.964242,11.2549,2001
231,1.998686,11.2549,2001
232,1.942642,11.2599,2001
233,1.976479,11.2599,2001
234,1.923460,11.2643,2001
235,1.944630,11.2643,2001
236,1.892345,11.2699,2001
237,1.935698,11.2699,2001
238,1.859972,11.2698,2001
239,1.891335,11.2749,2001
240,1.837625,11.2748,2001
241,1.870466,11.2799,2001
242,1.807749,11.2798,2001
243,1.834006,11.2848,2001
244,1.782493,11.2848,2001
245,1.820744,11.2898,2001
246,1.749254,11.2898,2001
247,1.780126,11.2948,2001
248,1.729367,11.2948,2001
249,1.755820,11.2998,2001
250,1.699706,11.2998,2001
251,1.718298,11.3041,2001
252,1.665560,11.3041,2001
253,1.704947,11.3098,2001
254,1.636058,11.3097,2001
255,1.663680,11.3147,2001
256,1.612331,11.3147,2001
257,1.638214,11.3197,2001
258,1.581137,11.3197,2001
259,1.602170,11.3247,2001
260,1.553023,11.3247,2001
261,1.590582,11.3297,2001
262,1.519289,11.3296,2001
263,1.545859,11.3347,2001
264,1.487370,11.3346,2001
265,1.519083,11.3396,2001
266,1.458349,11.3396,2001
267,1.476306,11.3446,2001
268,1.423283,11.3446,2001
269,1.459411,11.3496,2001
270,1.386200,11.3496,2001
271,1.417134,11.3546,2001
272,1.364705,11.3546,2001
273,1.384667,11.3596,2001
274,1.332920,11.3595,2001
275,1.346795,11.3645,2001
276,1.305294,11.3645,2001
277,1.328539,11.3695,2001
278,1.264924,11.3695,2001
279,1.287010,11.3745,2001
280,1.237414,11.3745,2001
281,1.256909,11.3795,2001
282,1.209105,11.3795,2001
283,1.222095,11.3845,2001
284,1.178677,11.3844,2001
285,1.202951,11.3901,2001
286,1.141408,11.3900,2001
287,1.160743,11.3944,2001
288,1.112154,11.3944,2001
289,1.133552,11.3994,2001
290,1.079383,11.3994,2001
291,1.095637,11.4044,2001
292,1.052415,11.4044,2001
293,1.078527,11.4094,2001
294,1.014075,11.4093,2001
295,1.033276,11.4144,2001
296,0.980758,11.4143,2001
297,1.003652,11.4193,2001
298,0.954711,11.4193,2001
299,0.969432,11.4243,2001
300,0.922058,11.4243,2001
301,0.949469,11.4299,2001
302,0.887159,11.4299,2001
303,0.904882,11.4343,2001
304,0.853140,11.4343,2001
305,0.870746,11.4393,2001
306,0.831447,11.4392,2001
307,0.833215,11.4442,2001
308,0.797456,11.4442,2001
309,0.816853,11.4492,2001
310,0.767987,11.4492,2001
311,0.777868,11.4542,2001
312,0.739579,11.4542,2001
313,0.745719,11.4592,2001
314,0.710072,11.4592,2001
315,0.710213,11.4642,2001
316,0.675511,11.4641,2001
317,0.692326,11.4692,2001
318,0.636862,11.4691,2001
319,0.651555,11.4741,2001
320,0.610816,11.4741,2001
321,0.620430,11.4791,2001
322,0.584592,11.4791,2001
323,0.587772,11.4841,2001
324,0.547515,11.4841,2001
325,0.561955,11.4897,2001
326,0.507561,11.4897,2001
327,0.524550,11.4941,2001
328,0.468099,11.4940,2001
329,0.479593,11.4990,2001
330,0.446907,11.4990,2001
331,0.447052,11.5040,2001
332,0.415123,11.5040,2001
333,0.430573,11.5096,2001
334,0.390966,11.5096,2001
335,0.394641,11.5140,2001
336,0.366626,11.5140,2001
337,0.366388,11.5190,2001
338,0.337363,11.5189,2001
339,0.337409,11.5239,2001
340,0.316619,11.5239,2001
341,0.326388,11.5296,2001
342,0.287103,11.5295,2001
343,0.292584,11.5339,2001
344,0.259032,11.5339,2001
345,0.260856,11.5389,2001
346,0.237568,11.5389,2002
347,0.233154,11.5439,2002
348,0.207636,11.5439,2002
349,0.217264,11.5495,2002
350,0.183175,11.5495,2002
351,0.188628,11.5539,2002
352,0.151770,11.5538,2002
353,0.154702,11.5588,2002
354,0.137405,11.5588,2002
355,0.126851,11.5638,2002
356,0.106930,11.5638,2002
357,0.110746,11.5694,2002
358,0.075824,11.5694,2002
359,0.082792,11.5738,2002
360,0.048623,11.5738,2002
361,0.052780,11.5788,2002
362,0.034866,11.5788,2002
363,0.021796,11.5838,2002
364,0.005630,11.5838,2002
365,0.007646,11.5888,2002
366,-0.022058,11.5887,2002
367,-0.023362,11.5937,2002
368,-0.046846,11.5937,2002
369,-0.047618,11.5987,2002
370,-0.070012,11.5987,2002
371,-0.082838,11.6037,2002
372,-0.093163,11.6037,2002
373,-0.095170,11.6093,2002
374,-0.117615,11.6093,2002
375,-0.115983,11.6137,2002
376,-0.145887,11.6137,2002
377,-0.149212,11.6187,2002
378,-0.164227,11.6187,2002
379,-0.177409,11.6236,2002
380,-0.190428,11.6236,2002
381,-0.193341,11.6286,2002
382,-0.212144,11.6286,2002
383,-0.220383,11.6336,2002
384,-0.245139,11.6336,2002
385,-0.248141,11.6386,2002
386,-0.261450,11.6386,2002
387,-0.278410,11.6436,2002
388,-0.284166,11.6436,2002
389,-0.283746,11.6492,2002
390,-0.308983,11.6492,2002
391,-0.315950,11.6536,2002
392,-0.339093,11.6536,2002
393,-0.344947,11.6585,2002
394,-0.352434,11.6585,2002
395,-0.374141,11.6635,2002
396,-0.376133,11.6635,2002
397,-0.382684,11.6691,2002
398,-0.403086,11.6691,2002
399,-0.411433,11.6735,2002
400,-0.434150,11.6735,2002
401,-0.435403,11.6785,2002
402,-0.444321,11.6785,2002
403,-0.457503,11.6835,2002
404,-0.464166,11.6835,2002
405,-0.475642,11.6885,2002
406,-0.485046,11.6885,2002
407,-0.493224,11.6935,2002
408,-0.522506,11.6934,2002
409,-0.522539,11.6984,2002
410,-0.527585,11.6984,2002
411,-0.548693,11.7034,2002
412,-0.554664,11.7034,2002
413,-0.564166,11.7090,2002
414,-0.573215,11.7090,2002
415,-0.585817,11.7134,2002
416,-0.632191,11.7184,2002
417,-0.611480,11.7184,2002
418,-0.654950,11.7234,2002
419,-0.637452,11.7234,2002
420,-0.676011,11.7284,2002
421,-0.651588,11.7284,2002
422,-0.705149,11.7333,2002
423,-0.670026,11.7334,2002
424,-0.713907,11.7383,2002
425,-0.699046,11.7383,2002
426,-0.738588,11.7433,2002
427,-0.722441,11.7433,2002
428,-0.763152,11.7483,2002
429,-0.734683,11.7483,2002
430,-0.789661,11.7533,2002
431,-0.753486,11.7533,2002
432,-0.802235,11.7583,2002
433,-0.777606,11.7583,2002
434,-0.816909,11.7633,2002
435,-0.801015,11.7633,2002
436,-0.838349,11.7683,2002
437,-0.816708,11.7683,2002
438,-0.860028,11.7732,2002
439,-0.838957,11.7733,2002
440,-0.880159,11.7782,2002
441,-0.864765,11.7782,2002
442,-0.894169,11.7832,2002
443,-0.894459,11.7832,2002
444,-0.922062,11.7882,2002
445,-0.903718,11.7882,2002
446,-0.942684,11.7932,2002
447,-0.923007,11.7932,2002
448,-0.941515,11.7982,2002
449,-0.929259,11.7982,2002
450,-0.972036,11.8032,2002
451,-0.946809,11.8032,2002
452,-0.986014,11.8082,2002
453,-0.957218,11.8082,2002
454,-1.006000,11.8132,2002
455,-0.973580,11.8132,2002
456,-1.002333,11.8182,2002
457,-0.988632,11.8182,2002
458,-1.020192,11.8231,2002
459,-1.003152,11.8232,2002
460,-1.031424,11.8281,2002
461,-1.058929,11.8281,2002
462,-1.073196,11.8331,2002
463,-1.048492,11.8331,2002
464,-1.083652,11.8381,2002
465,-1.064031,11.8381,2002
466,-1.100945,11.8431,2002
467,-1.104826,11.8431,2002
468,-1.132097,11.8481,2002
469,-1.103853,11.8481,2002
470,-1.148338,11.8531,2002
471,-1.138377,11.8531,2002
472,-1.164143,11.8581,2002
473,-1.151157,11.8581,2002
474,-1.176610,11.8624,2002
475,-1.175179,11.8624,2002
476,-1.188342,11.8680,2002
477,-1.180917,11.8681,2002
478,-1.206528,11.8730,2002
479,-1.194735,11.8730,2002
480,-1.212808,11.8780,2002
481,-1.205803,11.8780,2002
482,-1.227300,11.8824,2002
483,-1.221225,11.8824,2002
484,-1.237330,11.8880,2002
485,-1.229782,11.8880,2002
486,-1.256479,11.8930,2002
487,-1.238303,11.8930,2002
488,-1.264971,11.8980,2002
489,-1.258378,11.8980,2002
490,-1.284929,11.9024,2002
491,-1.280430,11.9024,2002
492,-1.294679,11.9080,2002
493,-1.291064,11.9080,2002
494,-1.315085,11.9130,2002
495,-1.300239,11.9130,2002
496,-1.328469,11.9180,2002
497,-1.321908,11.9180,2002
498,-1.344625,11.9223,2002
499,-1.341815,11.9223,2002
500,-1.357826,11.9279,2002
501,-1.355024,11.9280,2002
502,-1.379303,11.9329,2002
503,-1.365369,11.9329,2002
504,-1.388277,11.9379,2002
505,-1.385008,11.9379,2002
506,-1.405022,11.9423,2002
507,-1.412448,11.9423,2002
508,-1.421043,11.9479,2002
509,-1.413972,11.9479,2002
510,-1.436222,11.9529,2002
511,-1.425396,11.9529,2002
512,-1.445775,11.9579,2002
513,-1.445266,11.9579,2002
514,-1.462441,11.9623,2002
515,-1.465859,11.9623,2002
516,-1.481365,11.9679,2002
517,-1.472888,11.9679,2002
518,-1.497564,11.9722,2002
519,-1.487580,11.9722,2002
520,-1.507697,11.9779,2002
521,-1.509002,11.9779,2002
522,-1.521268,11.9822,2002
523,-1.527272,11.9822,2002
524,-1.537390,11.9878,2002
525,-1.538401,11.9878,2002
526,-1.552757,11.9928,2002
527,-1.541267,11.9928,2002
528,-1.558709,11.9978,2002
529,-1.557615,11.9978,2002
530,-1.564760,12.0022,2002
531,-1.572654,12.0022,2002
532,-1.577493,12.0078,2002
533,-1.585041,12.0078,2002
534,-1.591111,12.0122,2002
535,-1.584471,12.0122,2002
536,-1.601487,12.0172,2002
537,-1.601576,12.0172,2002
538,-1.609605,12.0222,2002
539,-1.621585,12.0222,2002
540,-1.626252,12.0278,2002
541,-1.633458,12.0278,2002
542,-1.646374,12.0322,2002
543,-1.644372,12.0322,2002
544,-1.654234,12.0371,2002
545,-1.656255,12.0371,2002
546,-1.665223,12.0421,2003
547,-1.674538,12.0421,2003
548,-1.683820,12.0478,2003
549,-1.690311,12.0478,2003
550,-1.697975,12.0521,2003
551,-1.694852,12.0521,2003
552,-1.710241,12.0571,2003
553,-1.713987,12.0571,2003
554,-1.718443,12.0621,2003
555,-1.733056,12.0621,2003
556,-1.737180,12.0677,2003
557,-1.746734,12.0677,2003
558,-1.753294,12.0721,2003
559,-1.752013,12.0721,2003
560,-1.765574,12.0771,2003
561,-1.774894,12.0771,2003
562,-1.772874,12.0771,2003
563,-1.790896,12.0821,2003
564,-1.787968,12.0821,2003
565,-1.802586,12.0877,2003
566,-1.804279,12.0921,2003
567,-1.810007,12.0921,2003
568,-1.822104,12.0977,2003
569,-1.825163,12.0977,2003
570,-1.823498,12.1020,2003
571,-1.839196,12.1020,2003
572,-1.837049,12.1077,2003
573,-1.855848,12.1077,2003
574,-1.854229,12.1120,2003
575,-1.849904,12.1120,2003
576,-1.840454,12.1170,2003
577,-1.835577,12.1170,2003
578,-1.801576,12.1221,2003
579,-1.799963,12.1221,2003
580,-1.774796,12.1221,2003
581,-1.787351,12.1277,2003
582,-1.783592,12.1277,2003
583,-1.787828,12.1321,2003
584,-1.774146,12.1321,2003
585,-1.780318,12.1377,2003
586,-1.774585,12.1421,2003
587,-1.798939,12.1421,2003
588,-1.790250,12.1477,2003
589,-1.810545,12.1477,2003
590,-1.798373,12.1521,2003
591,-1.814291,12.1521,2003
592,-1.813804,12.1571,2003
593,-1.826687,12.1570,2003
594,-1.821721,12.1621,2003
595,-1.843320,12.1620,2003
596,-1.836690,12.1670,2003
597,-1.855553,12.1670,2003
598,-1.847421,12.1670,2003
599,-1.861431,12.1720,2003
600,-1.861506,12.1720,2003
601,-1.873435,12.1776,2003
602,-1.865602,12.1777,2003
603,-1.887786,12.1820,2003
604,-1.872336,12.1820,2003
605,-1.879294,12.1876,2003
606,-1.845958,12.1920,2003
607,-1.862680,12.1920,2003
608,-1.851115,12.1970,2003
609,-1.865429,12.1970,2003
610,-1.853514,12.2020,2003
611,-1.875132,12.2020,2003
612,-1.861511,12.2070,2003
613,-1.890756,12.2070,2003
614,-1.874043,12.2120,2003
615,-1.896718,12.2120,2003
616,-1.887510,12.2170,2003
617,-1.899752,12.2170,2003
618,-1.885883,12.2170,2003
619,-1.912504,12.2220,2003
620,-1.893613,12.2220,2003
621,-1.910685,12.2276,2003
622,-1.888455,12.2276,2003
623,-1.913720,12.2320,2003
624,-1.906986,12.2370,2003
625,-1.920706,12.2370,2003
626,-1.908936,12.2420,2003
627,-1.934113,12.2420,2003
628,-1.920079,12.2470,2003
629,-1.935207,12.2470,2003
630,-1.895773,12.2520,2003
631,-1.920472,12.2520,2003
632,-1.910297,12.2570,2003
633,-1.934473,12.2570,2003
634,-1.911840,12.2620,2003
635,-1.948104,12.2620,2003
636,-1.929671,12.2620,2003
637,-1.964517,12.2670,2003
638,-1.930849,12.2670,2003
639,-1.964541,12.2720,2003
640,-1.953552,12.2720,2003
641,-1.976292,12.2770,2003
642,-1.954463,12.2770,2003
643,-1.989960,12.2820,2003
644,-1.964751,12.2820,2003
645,-2.000047,12.2869,2003
646,-1.969432,12.2920,2003
647,-2.002806,12.2919,2003
648,-1.991200,12.2969,2003
649,-2.011447,12.2969,2003
650,-1.988160,12.3020,2003
651,-2.026014,12.3019,2003
652,-2.000706,12.3069,2003
653,-2.032789,12.3069,2003
654,-2.006299,12.3069,2003
655,-2.040837,12.3119,2003
656,-2.024817,12.3119,2003
657,-2.050971,12.3175,2003
658,-2.026159,12.3176,2003
659,-2.058191,12.3219,2003
660,-2.007898,12.3219,2003
661,-2.037246,12.3275,2003
662,-2.000982,12.3276,2003
663,-2.035001,12.3319,2003
664,-1.989862,12.3320,2003
665,-2.018499,12.3369,2003
666,-1.986051,12.3370,2003
667,-2.029596,12.3419,2003
668,-1.997915,12.3419,2003
669,-2.041029,12.3469,2003
670,-2.001758,12.3469,2003
671,-2.036166,12.3519,2003
672,-2.014360,12.3519,2003
673,-2.043278,12.3569,2003
674,-2.008759,12.3569,2003
675,-2.054502,12.3619,2003
676,-2.019873,12.3619,2003
677,-2.059088,12.3675,2003
678,-2.021908,12.3676,2003
679,-2.049675,12.3719,2003
680,-2.008904,12.3719,2003
681,-2.039397,12.3769,2003
682,-2.009787,12.3769,2003
683,-2.054473,12.3819,2003
684,-2.019883,12.3819,2003
685,-2.066972,12.3869,2003
686,-2.023339,12.3869,2003
687,-2.063769,12.3919,2003
688,-2.042638,12.3919,2003
689,-2.075539,12.3969,2003
690,-2.035549,12.3969,2003
691,-2.083727,12.4019,2003
692,-2.039879,12.4019,2003
693,-2.087014,12.4069,2003
694,-2.037868,12.4069,2003
695,-2.060561,12.4125,2003
696,-2.034071,12.4126,2003
697,-2.066140,12.4169,2003
698,-2.029376,12.4169,2003
699,-2.077531,12.4219,2003
700,-2.038860,12.4219,2003
701,-2.090442,12.4269,2003
702,-2.045046,12.4269,2003
703,-2.091120,12.4319,2003
704,-2.063956,12.4319,2003
705,-2.097494,12.4369,2003
706,-2.059528,12.4369,2003
707,-2.111083,12.4419,2003
708,-2.069507,12.4419,2003
709,-2.123624,12.4469,2003
710,-2.071751,12.4469,2003
711,-2.123157,12.4519,2003
712,-2.095319,12.4519,2003
713,-2.127982,12.4575,2003
714,-2.087702,12.4575,2003
715,-2.135665,12.4619,2003
716,-2.067084,12.4619,2003
717,-2.122268,12.4675,2003
718,-2.067127,12.4675,2003
719,-2.121814,12.4719,2003
720,-2.087159,12.4719,2003
721,-2.121754,12.4769,2003
722,-2.080225,12.4769,2003
723,-2.136170,12.4819,2003
724,-2.090704,12.4819,2003
725,-2.142853,12.4869,2003
726,-2.084845,12.4869,2003
727,-2.127964,12.4919,2003
728,-2.082684,12.4919,2003
729,-2.113486,12.4969,2003
730,-2.078775,12.4969,2003
731,-2.130858,12.5019,2003
732,-2.063339,12.5019,2003
733,-2.106730,12.5075,2003
734,-2.046917,12.5075,2003
735,-2.106678,12.5125,2003
736,-2.073837,12.5125,2003
737,-2.107365,12.5169,2003
738,-2.063250,12.5169,2003
739,-2.117826,12.5219,2003
740,-2.051176,12.5219,2003
741,-2.098041,12.5269,2003
742,-2.035474,12.5269,2003
743,-2.098270,12.5319,2003
744,-2.064162,12.5319,2003
745,-2.100673,12.5369,2003
746,-2.058560,12.5369,2004
747,-2.110232,12.5419,2004
748,-2.067155,12.5419,2004
749,-2.124340,12.5469,2004
750,-2.063718,12.5469,2004
751,-2.125373,12.5525,2004
752,-2.088057,12.5525,2004
753,-2.124298,12.5575,2004
754,-2.079991,12.5575,2004
755,-2.133767,12.5619,2004
756,-2.087543,12.5619,2004
757,-2.147056,12.5669,2004
758,-2.083493,12.5669,2004
759,-2.148483,12.5719,2004
760,-2.080945,12.5719,2004
761,-2.114842,12.5769,2004
762,-2.069343,12.5769,2004
763,-2.128399,12.5819,2004
764,-2.078392,12.5819,2004
765,-2.120552,12.5869,2004
766,-2.047534,12.5869,2004
767,-2.111171,12.5919,2004
768,-2.073851,12.5919,2004
769,-2.105766,12.5969,2004
770,-2.061174,12.5969,2004
771,-2.123465,12.6019,2004
772,-2.072836,12.6019,2004
773,-2.134931,12.6075,2004
774,-2.069956,12.6075,2004
775,-2.138536,12.6119,2004
776,-2.091629,12.6119,2004
777,-2.135927,12.6169,2004
778,-2.085733,12.6169,2004
779,-2.145850,12.6219,2004
780,-2.100561,12.6219,2004
781,-2.163077,12.6269,2004
782,-2.092677,12.6269,2004
783,-2.164597,12.6318,2004
784,-2.115983,12.6319,2004
785,-2.162138,12.6369,2004
786,-2.114646,12.6369,2004
787,-2.175871,12.6418,2004
788,-2.124255,12.6419,2004
789,-2.186874,12.6468,2004
790,-2.118317,12.6469,2004
791,-2.190662,12.6518,2004
792,-2.140767,12.6519,2004
793,-2.188740,12.6575,2004
794,-2.135095,12.6575,2004
795,-2.196891,12.6618,2004
796,-2.146374,12.6619,2004
797,-2.205831,12.6674,2004
798,-2.140800,12.6675,2004
799,-2.216713,12.6718,2004
800,-2.165027,12.6718,2004
801,-2.208473,12.6768,2004
802,-2.157947,12.6769,2004
803,-2.223582,12.6818,2004
804,-2.170311,12.6818,2004
805,-2.231569,12.6868,2004
806,-2.159551,12.6869,2004
807,-2.237489,12.6918,2004
808,-2.184036,12.6918,2004
809,-2.232616,12.6968,2004
810,-2.177429,12.6968,2004
811,-2.239986,12.7018,2004
812,-2.192415,12.7018,2004
813,-2.255488,12.7074,2004
814,-2.182614,12.7075,2004
815,-2.256170,12.7118,2004
816,-2.210792,12.7118,2004
817,-2.256119,12.7168,2004
818,-2.201702,12.7168,2004
819,-2.261225,12.7218,2004
820,-2.210643,12.7218,2004
821,-2.273519,12.7268,2004
822,-2.203484,12.7268,2004
823,-2.275127,12.7318,2004
824,-2.191214,12.7318,2004
825,-2.229483,12.7368,2004
826,-2.173636,12.7368,2004
827,-2.234599,12.7418,2004
828,-2.180716,12.7418,2004
829,-2.213706,12.7468,2004
830,-2.130026,12.7469,2004
831,-2.207472,12.7518,2004
832,-2.156016,12.7519,2004
833,-2.201702,12.7568,2004
834,-2.141730,12.7569,2004
835,-2.214094,12.7618,2004
836,-2.163409,12.7618,2004
837,-2.224803,12.7668,2004
838,-2.154529,12.7669,2004
839,-2.225037,12.7718,2004
840,-2.173781,12.7718,2004
841,-2.224241,12.7768,2004
842,-2.162436,12.7769,2004
843,-2.231667,12.7818,2004
844,-2.179317,12.7818,2004
845,-2.242128,12.7868,2004
846,-2.169652,12.7868,2004
847,-2.245972,12.7918,2004
848,-2.195703,12.7918,2004
849,-2.243867,12.7974,2004
850,-2.189628,12.7975,2004
851,-2.255408,12.8018,2004
852,-2.198181,12.8018,2004
853,-2.255408,12.8068,2004
854,-2.182722,12.8068,2004
855,-2.258761,12.8118,2004
856,-2.208679,12.8118,2004
857,-2.255675,12.8168,2004
858,-2.195095,12.8168,2004
859,-2.248221,12.8218,2004
860,-2.161609,12.8219,2004
861,-2.224134,12.8268,2004
862,-2.140337,12.8269,2004
863,-2.193154,12.8318,2004
864,-2.100019,12.8319,2004
865,-2.145887,12.8369,2004
866,-2.085798,12.8369,2004
867,-2.152836,12.8419,2004
868,-2.068380,12.8419,2004
869,-2.132649,12.8469,2004
870,-2.061281,12.8469,2004
871,-2.140968,12.8519,2004
872,-2.081936,12.8519,2004
873,-2.129282,12.8569,2004
874,-2.074323,12.8569,2004
875,-2.139121,12.8612,2004
876,-2.088945,12.8613,2004
877,-2.147795,12.8669,2004
878,-2.074426,12.8669,2004
879,-2.153757,12.8719,2004
880,-2.102628,12.8719,2004
881,-2.145490,12.8769,2004
882,-2.058443,12.8769,2004
883,-2.121132,12.8812,2004
884,-2.068263,12.8813,2004
885,-2.128501,12.8869,2004
886,-2.056236,12.8869,2004
887,-2.136240,12.8919,2004
888,-2.077166,12.8919,2004
889,-2.131045,12.8969,2004
890,-2.073281,12.8969,2004
891,-2.137700,12.9019,2004
892,-2.081773,12.9019,2004
893,-2.144831,12.9069,2004
894,-2.072233,12.9069,2004
895,-2.147332,12.9119,2004
896,-2.099079,12.9119,2004
897,-2.143288,12.9169,2004
898,-2.092327,12.9169,2004
899,-2.151704,12.9212,2004
900,-2.101646,12.9213,2004
901,-2.162965,12.9268,2004
902,-2.085612,12.9269,2004
903,-2.171985,12.9318,2004
904,-2.117190,12.9319,2004
905,-2.165518,12.9368,2004
906,-2.108483,12.9369,2004
907,-2.172341,12.9418,2004
908,-2.115432,12.9419,2004
909,-2.174740,12.9468,2004
910,-2.070821,12.9469,2004
911,-2.137512,12.9519,2004
912,-2.078508,12.9519,2004
913,-2.128801,12.9562,2004
914,-2.070040,12.9563,2004
915,-2.119126,12.9613,2004
916,-2.031420,12.9613,2004
917,-2.087922,12.9669,2004
918,-1.981698,12.9670,2004
919,-2.055488,12.9713,2004
920,-2.006874,12.9713,2004
921,-2.048123,12.9763,2004
922,-1.999177,12.9763,2004
923,-2.056255,12.9819,2004
924,-2.008693,12.9819,2004
925,-2.058995,12.9869,2004
926,-1.944026,12.9870,2004
927,-2.023287,12.9919,2004
928,-1.969095,12.9920,2004
929,-2.016156,12.9969,2004
930,-1.965378,12.9970,2004
931,-2.021955,13.0013,2004
932,-1.977629,13.0013,2004
933,-2.031008,13.0063,2004
934,-1.958032,13.0063,2004
935,-2.038621,13.0113,2004
936,-1.986238,13.0113,2004
937,-2.034824,13.0163,2004
938,-1.984129,13.0163,2004
939,-2.024517,13.0213,2004
940,-1.955006,13.0213,2004
941,-2.007028,13.0263,2004
942,-1.934515,13.0264,2004
943,-2.012789,13.0319,2004
944,-1.961010,13.0320,2004
945,-2.008483,13.0369,2004
946,-1.954038,13.0370,2005
947,-2.013678,13.0413,2005
948,-1.965214,13.0413,2005
949,-2.017844,13.0463,2005
950,-1.948819,13.0464,2005
951,-2.025878,13.0513,2005
952,-1.978602,13.0513,2005
953,-2.021403,13.0563,2005
954,-1.970872,13.0563,2005
955,-2.025752,13.0613,2005
956,-1.979406,13.0613,2005
957,-2.031059,13.0663,2005
958,-1.965915,13.0663,2005
959,-2.040538,13.0713,2005
960,-1.989507,13.0713,2005
961,-2.039196,13.0769,2005
962,-1.987365,13.0770,2005
963,-2.039322,13.0813,2005
964,-1.997676,13.0813,2005
965,-2.046215,13.0863,2005
966,-1.976451,13.0863,2005
967,-2.055689,13.0913,2005
968,-2.005728,13.0913,2005
969,-2.046795,13.0963,2005
970,-1.998626,13.0963,2005
971,-2.054534,13.1013,2005
972,-2.009998,13.1013,2005
973,-2.056928,13.1063,2005
974,-1.997625,13.1063,2005
975,-2.066561,13.1113,2005
976,-2.014557,13.1113,2005
977,-2.064634,13.1163,2005
978,-2.010905,13.1163,2005
979,-2.066860,13.1213,2005
980,-2.018985,13.1213,2005
981,-2.073281,13.1269,2005
982,-2.007805,13.1269,2005
983,-2.074496,13.1313,2005
984,-2.021511,13.1313,2005
985,-2.070278,13.1363,2005
986,-2.019308,13.1363,2005
987,-2.073715,13.1413,2005
988,-2.027505,13.1413,2005
989,-2.064873,13.1463,2005
990,-1.970437,13.1463,2005
991,-2.034421,13.1513,2005
992,-1.991223,13.1513,2005
993,-2.032659,13.1563,2005
994,-1.986622,13.1563,2005
995,-2.037190,13.1613,2005
996,-2.001211,13.1613,2005
997,-2.039748,13.1669,2005
998,-1.981571,13.1670,2005
999,-2.047300,13.1713,2005
1000,-1.999303,13.1713,2005
1001,-2.042638,13.1763,2005
1002,-1.997354,13.1763,2005
1003,-2.049685,13.1813,2005
1004,-2.006322,13.1813,2005
1005,-2.046247,13.1863,2005
1006,-1.992584,13.1863,2005
1007,-2.055156,13.1913,2005
1008,-2.008146,13.1913,2005
1009,-2.049876,13.1963,2005
1010,-2.005579,13.1963,2005
1011,-2.058303,13.2013,2005
1012,-2.016166,13.2013,2005
1013,-2.057746,13.2063,2005
1014,-2.001978,13.2063,2005
1015,-2.062642,13.2113,2005
1016,-1.987398,13.2113,2005
1017,-2.017961,13.2163,2005
1018,-1.973323,13.2163,2005
1019,-2.021006,13.2213,2005
1020,-1.985574,13.2213,2005
1021,-2.020341,13.2263,2005
1022,-1.935707,13.2264,2005
1023,-1.990353,13.2313,2005
1024,-1.950741,13.2313,2005
1025,-1.988927,13.2363,2005
1026,-1.947646,13.2363,2005
1027,-1.991457,13.2413,2005
1028,-1.952490,13.2413,2005
1029,-1.998789,13.2463,2005
1030,-1.940019,13.2464,2005
1031,-1.998766,13.2513,2005
1032,-1.958088,13.2513,2005
1033,-1.996245,13.2563,2005
1034,-1.955455,13.2563,2005
1035,-1.997101,13.2613,2005
1036,-1.961932,13.2613,2005
1037,-1.998967,13.2663,2005
1038,-1.942095,13.2664,2005
1039,-2.004284,13.2713,2005
1040,-1.964153,13.2713,2005
1041,-2.006790,13.2763,2005
1042,-1.962413,13.2763,2005
1043,-2.001791,13.2813,2005
1044,-1.973991,13.2813,2005
1045,-1.975983,13.2863,2005
1046,-1.821974,13.2864,2005
1047,-1.870849,13.2914,2005
1048,-1.833940,13.2914,2005
1049,-1.838312,13.2964,2005
1050,-1.783835,13.2964,2005
1051,-1.821571,13.3014,2005
1052,-1.790971,13.3014,2005
1053,-1.826575,13.3064,2005
1054,-1.781412,13.3064,2005
1055,-1.832032,13.3114,2005
1056,-1.794421,13.3114,2005
1057,-1.832766,13.3164,2005
1058,-1.794103,13.3164,2005
1059,-1.827964,13.3214,2005
1060,-1.805635,13.3214,2005
1061,-1.816334,13.3264,2005
1062,-1.736858,13.3265,2005
1063,-1.765256,13.3315,2005
1064,-1.709732,13.3315,2005
1065,-1.744732,13.3365,2005
1066,-1.710274,13.3365,2005
1067,-1.746280,13.3415,2005
1068,-1.714450,13.3415,2005
1069,-1.752715,13.3465,2005
1070,-1.702324,13.3465,2005
1071,-1.751957,13.3515,2005
1072,-1.713697,13.3515,2005
1073,-1.749278,13.3565,2005
1074,-1.667005,13.3565,2005
1075,-1.656998,13.3615,2005
1076,-1.593701,13.3616,2005
1077,-1.612374,13.3665,2005
1078,-1.567678,13.3666,2005
1079,-1.616816,13.3715,2005
1080,-1.582549,13.3716,2005
1081,-1.616311,13.3765,2005
1082,-1.566463,13.3766,2005
1083,-1.564644,13.3816,2005
1084,-1.517050,13.3816,2005
1085,-1.520295,13.3866,2005
1086,-1.480776,13.3866,2005
1087,-1.521815,13.3916,2005
1088,-1.492261,13.3916,2005
1089,-1.529301,13.3966,2005
1090,-1.490886,13.3966,2005
1091,-1.518059,13.4016,2005
1092,-1.505925,13.4016,2005
1093,-1.522577,13.4066,2005
1094,-1.486837,13.4066,2005
1095,-1.527328,13.4116,2005
1096,-1.498691,13.4116,2005
1097,-1.532331,13.4166,2005
1098,-1.501894,13.4166,2005
1099,-1.526299,13.4216,2005
1100,-1.507977,13.4216,2005
1101,-1.528969,13.4266,2005
1102,-1.497082,13.4266,2005
1103,-1.529006,13.4316,2005
1104,-1.507071,13.4316,2005
1105,-1.536900,13.4366,2005
1106,-1.507641,13.4366,2005
1107,-1.528819,13.4416,2005
1108,-1.470765,13.4416,2005
1109,-1.476446,13.4466,2005
1110,-1.445672,13.4466,2005
1111,-1.482534,13.4516,2005
1112,-1.457849,13.4516,2005
1113,-1.485729,13.4566,2005
1114,-1.460692,13.4566,2005
1115,-1.476713,13.4616,2005
1116,-1.426435,13.4617,2005
1117,-1.431167,13.4667,2005
1118,-1.402044,13.4667,2005
1119,-1.428642,13.4717,2005
1120,-1.410704,13.4717,2005
1121,-1.437858,13.4766,2005
1122,-1.383816,13.4767,2005
1123,-1.378237,13.4817,2005
1124,-1.372425,13.4817,2005
1125,-1.384279,13.4867,2005
1126,-1.353337,13.4867,2005
1127,-1.351377,13.4917,2005
1128,-1.316222,13.4917,2005
1129,-1.344152,13.4967,2005
1130,-1.314735,13.4967,2005
1131,-1.331083,13.5017,2005
1132,-1.322937,13.5017,2005
1133,-1.335670,13.5067,2005
1134,-1.311807,13.5067,2005
1135,-1.336447,13.5117,2005
1136,-1.321197,13.5117,2005
1137,-1.336479,13.5167,2005
1138,-1.265925,13.5168,2005
1139,-1.280407,13.5217,2005
1140,-1.227730,13.5218,2005
1141,-1.228927,13.5268,2005
1142,-1.212602,13.5268,2005
1143,-1.230054,13.5318,2005
1144,-1.209348,13.5318,2005
1145,-1.193973,13.5368,2005
1146,-1.128571,13.5368,2006
1147,-1.134655,13.5418,2006
1148,-1.130826,13.5418,2006
1149,-1.142670,13.5468,2006
1150,-1.110316,13.5468,2006
1151,-1.131354,13.5518,2006
1152,-1.116662,13.5518,2006
1153,-1.148749,13.5568,2006
1154,-1.134281,13.5568,2006
1155,-1.133566,13.5618,2006
1156,-1.138097,13.5618,2006
1157,-1.143872,13.5668,2006
1158,-1.118934,13.5668,2006
1159,-1.130302,13.5718,2006
1160,-1.122334,13.5718,2006
1161,-1.147903,13.5768,2006
1162,-1.077872,13.5769,2006
1163,-1.033870,13.5813,2006
1164,-1.050699,13.5813,2006
1165,-1.030503,13.5869,2006
1166,-1.022333,13.5869,2006
1167,-1.020122,13.5919,2006
1168,-1.028506,13.5919,2006
1169,-1.015539,13.5969,2006
1170,-0.966056,13.5969,2006
1171,-0.978691,13.6019,2006
1172,-0.970615,13.6019,2006
1173,-0.979163,13.6069,2006
1174,-0.964199,13.6069,2006
1175,-0.983329,13.6119,2006
1176,-0.968506,13.6119,2006
1177,-0.985635,13.6169,2006
1178,-0.937667,13.6169,2006
1179,-0.942310,13.6213,2006
1180,-0.936801,13.6213,2006
1181,-0.944802,13.6269,2006
1182,-0.899135,13.6270,2006
1183,-0.885083,13.6320,2006
1184,-0.891690,13.6320,2006
1185,-0.897769,13.6370,2006
1186,-0.894852,13.6370,2006
1187,-0.885789,13.6420,2006
1188,-0.847917,13.6420,2006
1189,-0.842310,13.6470,2006
1190,-0.836058,13.6470,2006
1191,-0.847262,13.6520,2006
1192,-0.834795,13.6520,2006
1193,-0.845125,13.6570,2006
1194,-0.824985,13.6570,2006
1195,-0.783531,13.6614,2006
1196,-0.785284,13.6614,2006
1197,-0.779518,13.6670,2006
1198,-0.774244,13.6670,2006
1199,-0.778962,13.6720,2006
1200,-0.777040,13.6720,2006
1201,-0.772415,13.6770,2006
1202,-0.727052,13.6771,2006
1203,-0.720145,13.6821,2006
1204,-0.734468,13.6821,2006
1205,-0.723680,13.6871,2006
1206,-0.723301,13.6871,2006
1207,-0.715193,13.6921,2006
1208,-0.723928,13.6921,2006
1209,-0.732972,13.6971,2006
1210,-0.724966,13.6971,2006
1211,-0.717059,13.7015,2006
1212,-0.736783,13.7014,2006
1213,-0.701796,13.7071,2006
1214,-0.671171,13.7071,2006
1215,-0.663213,13.7121,2006
1216,-0.667552,13.7121,2006
1217,-0.675025,13.7171,2006
1218,-0.670157,13.7171,2006
1219,-0.663521,13.7215,2006
1220,-0.633112,13.7215,2006
1221,-0.610821,13.7271,2006
1222,-0.605345,13.7271,2006
1223,-0.564456,13.7322,2006
1224,-0.553972,13.7322,2006
1225,-0.563068,13.7372,2006
1226,-0.555310,13.7372,2006
1227,-0.542385,13.7422,2006
1228,-0.560781,13.7422,2006
1229,-0.545368,13.7466,2006
1230,-0.555562,13.7465,2006
1231,-0.542315,13.7522,2006
1232,-0.552976,13.7522,2006
1233,-0.519401,13.7566,2006
1234,-0.500393,13.7566,2006
1235,-0.485251,13.7616,2006
1236,-0.507856,13.7616,2006
1237,-0.476722,13.7666,2006
1238,-0.438826,13.7666,2006
1239,-0.423082,13.7722,2006
1240,-0.436306,13.7722,2006
1241,-0.440556,13.7772,2006
1242,-0.440098,13.7772,2006
1243,-0.393182,13.7823,2006
1244,-0.387576,13.7823,2006
1245,-0.362890,13.7873,2006
1246,-0.382492,13.7873,2006
1247,-0.354043,13.7923,2006
1248,-0.262619,13.7923,2006
1249,-0.259172,13.7967,2006
1250,-0.209525,13.7968,2006
1251,-0.182754,13.8018,2006
1252,-0.208314,13.8018,2006
1253,-0.194477,13.8068,2006
1254,-0.205920,13.8068,2006
1255,-0.185396,13.8118,2006
1256,-0.201520,13.8118,2006
1257,-0.193734,13.8168,2006
1258,-0.165046,13.8168,2006
1259,-0.127131,13.8224,2006
1260,-0.151517,13.8224,2006
1261,-0.128543,13.8274,2006
1262,-0.146664,13.8274,2006
1264,-0.140098,13.8324,2006
1265,-0.138639,13.8368,2006
1266,-0.149497,13.8368,2006
1267,-0.125424,13.8418,2006
1268,-0.151508,13.8418,2006
1269,-0.129745,13.8468,2006
1270,-0.096703,13.8468,2006
1271,-0.062343,13.8518,2006
1272,-0.084237,13.8518,2006
1273,-0.080351,13.8568,2006
1274,-0.093668,13.8568,2006
1275,-0.064559,13.8618,2006
1276,-0.098588,13.8618,2006
1277,-0.067982,13.8668,2006
1278,-0.091994,13.8668,2006
1279,-0.062553,13.8725,2006
1280,-0.088815,13.8724,2006
1281,-0.079373,13.8775,2006
1282,-0.091195,13.8774,2006
1283,-0.065836,13.8825,2006
1284,-0.095216,13.8824,2006
1285,-0.067056,13.8875,2006
1286,-0.093799,13.8874,2006
1287,-0.059149,13.8918,2006
1288,-0.090886,13.8918,2006
1289,-0.080444,13.8968,2006
1290,-0.093014,13.8968,2006
1291,-0.064354,13.9018,2006
1292,-0.100800,13.9018,2006
1293,-0.066467,13.9068,2006
1294,-0.093346,13.9068,2006
1295,-0.059387,13.9118,2006
1296,-0.088660,13.9118,2006
1297,-0.074552,13.9168,2006
1352,-0.037129,14.0519,2007
1353,-0.010199,14.0562,2007
1354,-0.041595,14.0562,2007
1355,-0.002843,14.0612,2007
1356,-0.049596,14.0612,2007
1357,-0.003998,14.0669,2007
1358,-0.046486,14.0669,2007
1359,0.006332,14.0719,2007
1360,-0.040599,14.0719,2007
1361,-0.016161,14.0769,2007
1362,-0.042754,14.0769,2007
1363,-0.002852,14.0812,2007
1364,-0.048941,14.0812,2007
1365,-0.007987,14.0862,2007
1366,-0.048796,14.0862,2007
1367,0.010362,14.0913,2007
1368,-0.043516,14.0912,2007
1369,-0.013561,14.0962,2007
1370,-0.043213,14.0962,2007
1371,0.002324,14.1013,2007
1372,-0.050732,14.1012,2007
1373,-0.001552,14.1062,2007
1374,-0.046271,14.1062,2007
1375,0.008791,14.1113,2007
1376,-0.044101,14.1112,2007
1377,-0.009394,14.1169,2007
1378,-0.040500,14.1169,2007
1379,0.002165,14.1219,2007
1380,-0.048543,14.1218,2007
1388,-0.050751,14.1412,2007
1389,-0.006570,14.1462,2007
1390,-0.050531,14.1462,2007
1391,0.010592,14.1513,2007
1392,-0.042469,14.1512,2007
1393,-0.009885,14.1512,2007
1394,-0.042623,14.1562,2007
1395,0.000486,14.1563,2007
1396,-0.048922,14.1618,2007
1397,-0.003203,14.1669,2007
1398,-0.055277,14.1668,2007
1399,0.009843,14.1719,2007
1400,-0.043727,14.1718,2007
1401,-0.007561,14.1762,2007
1460,-0.052869,14.3212,2007
1461,-0.009226,14.3262,2007
1462,-0.062544,14.3262,2007
1463,0.008300,14.3313,2007
1464,-0.055394,14.3312,2007
1465,-0.007173,14.3362,2007
1466,-0.051064,14.3362,2007
1467,0.006126,14.3363,2007
1468,-0.056624,14.3412,2007
1469,-0.003666,14.3412,2007
1470,-0.055876,14.3468,2007
1471,0.010947,14.3469,2007
1472,-0.054866,14.3518,2007
1473,-0.004569,14.3519,2007
1474,-0.051854,14.3562,2007
1475,0.002736,14.3613,2007
1476,-0.063432,14.3612,2007
1477,-0.010180,14.3662,2007
1478,-0.059327,14.3662,2007
1479,0.015357,14.3713,2007
1480,-0.054996,14.3712,2007
1481,-0.008637,14.3762,2007
1482,-0.058532,14.3762,2007
1483,0.002455,14.3813,2007
1484,-0.058723,14.3812,2007
1485,-0.000659,14.3813,2007
1486,-0.062651,14.3862,2007
1487,0.008609,14.3863,2007
1488,-0.054417,14.3918,2007
1532,-0.058130,14.5012,2007
1533,-0.007010,14.5012,2007
1534,-0.066364,14.5062,2007
1535,0.015207,14.5063,2007
1536,-0.058836,14.5112,2007
1537,-0.004246,14.5112,2007
1538,-0.053379,14.5162,2007
1539,-0.000921,14.5162,2007
1540,-0.061609,14.5212,2007
1541,-0.006257,14.5212,2007
1542,-0.061992,14.5262,2007
1543,0.011405,14.5263,2007
1544,-0.061800,14.5312,2007
1545,-0.004559,14.5312,2007
1546,-0.050058,14.5368,2008
1547,-0.002081,14.5369,2008
1548,-0.061066,14.5412,2008
1549,-0.012560,14.5412,2008
1550,-0.069745,14.5462,2008
1551,0.013991,14.5463,2008
1552,-0.061459,14.5512,2008
1553,-0.003390,14.5513,2008
1554,-0.051756,14.5562,2008
1555,-0.007463,14.5562,2008
1556,-0.062329,14.5612,2008
1557,-0.014641,14.5612,2008
1558,-0.066462,14.5662,2008
1559,0.009787,14.5663,2008
1560,-0.058649,14.5712,2008
1604,-0.055731,14.6812,2008
1605,-0.017671,14.6812,2008
1606,-0.065920,14.6862,2008
1607,-0.001571,14.6862,2008
1608,-0.062020,14.6912,2008
1609,-0.005789,14.6912,2008
1610,-0.057596,14.6962,2008
1611,-0.008062,14.6962,2008
1612,-0.056619,14.7012,2008
1613,-0.023577,14.7012,2008
1614,-0.062305,14.7062,2008
1615,0.002006,14.7063,2008
1616,-0.064498,14.7112,2008
1617,-0.006991,14.7112,2008
1618,-0.059397,14.7162,2008
1619,-0.007608,14.7162,2008
1620,-0.056946,14.7212,2008
1621,-0.016367,14.7212,2008
1622,-0.058639,14.7262,2008
1623,-0.003858,14.7262,2008
1624,-0.063133,14.7312,2008
1625,-0.006720,14.7312,2008
1626,-0.057480,14.7362,2008
1627,-0.010161,14.7362,2008
1628,-0.055305,14.7412,2008
1629,-0.015254,14.7412,2008
1630,-0.061819,14.7462,2008
1631,0.001146,14.7463,2008
1632,-0.062128,14.7512,2008
1677,-0.023568,14.8612,2008
1678,-0.059242,14.8662,2008
1679,-0.009820,14.8662,2008
1680,-0.058854,14.8712,2008
1681,-0.014777,14.8712,2008
1682,-0.053220,14.8756,2008
1683,-0.019640,14.8756,2008
1684,-0.057587,14.8806,2008
1685,-0.023049,14.8806,2008
1686,-0.059481,14.8856,2008
1687,-0.010222,14.8856,2008
1688,-0.061230,14.8906,2008
1689,-0.015815,14.8906,2008
1690,-0.052630,14.8956,2008
1691,-0.019303,14.8956,2008
1692,-0.057793,14.9006,2008
1693,-0.025794,14.9006,2008
1694,-0.057054,14.9056,2008
1695,-0.013678,14.9056,2008
1696,-0.062862,14.9112,2008
1697,-0.018195,14.9112,2008
1698,-0.050409,14.9162,2008
1699,-0.017564,14.9162,2008
1700,-0.052364,14.9206,2008
1701,-0.024424,14.9206,2008
1702,-0.056544,14.9256,2008
1703,-0.017536,14.9256,2008
1704,-0.058363,14.9306,2008
1705,-0.013542,14.9306,2008
