Point No.,Normal Force [N],Gap [mm],Time [s]
19,0.002843,17.3137,199.2760
20,0.001223,17.3188,199.2860
21,0.000900,17.3238,199.2960
22,0.003016,17.3281,199.3060
23,0.002740,17.3337,199.3160
24,0.001188,17.3388,199.3260
25,0.002097,17.3438,199.3360
26,0.002586,17.3481,199.3460
27,0.001136,17.3538,199.3560
28,0.000650,17.3588,199.3660
29,0.001319,17.3638,199.3760
30,0.002483,17.3688,199.3850
31,0.001831,17.3738,199.3950
32,0.001842,17.3788,199.4050
33,0.000526,17.3838,199.4150
34,0.002450,17.3881,199.4250
35,0.001800,17.3937,199.4350
36,0.000341,17.3988,199.4450
37,-0.001347,17.4038,199.4550
38,0.001693,17.4088,199.4650
39,0.000881,17.4138,199.4750
40,0.000727,17.4188,199.4850
41,0.001029,17.4238,199.4950
42,0.002855,17.4288,199.5050
43,0.001300,17.4338,199.5150
44,0.001440,17.4388,199.5250
45,0.001218,17.4438,199.5350
46,0.001707,17.4488,199.5450
47,0.001073,17.4538,199.5550
48,0.001868,17.4588,199.5650
56,-0.000098,17.4988,199.6450
57,-0.000587,17.5037,199.6550
58,0.001679,17.5088,199.6650
59,0.000956,17.5138,199.6750
60,0.001272,17.5188,199.6850
61,-0.000262,17.5238,199.6950
62,0.002172,17.5288,199.7050
63,0.001375,17.5338,199.7150
64,0.000238,17.5388,199.7250
65,-0.000173,17.5438,199.7350
66,0.001022,17.5488,199.7450
67,-0.000638,17.5538,199.7550
68,-0.000917,17.5588,199.7650
69,-0.000222,17.5637,199.7750
70,0.001204,17.5688,199.7850
71,-0.000800,17.5737,199.7950
72,-0.000570,17.5787,199.8050
73,-0.000119,17.5838,199.8150
74,0.001431,17.5887,199.8250
75,0.000804,17.5938,199.8350
76,0.001543,17.5988,199.8450
77,0.000096,17.6037,199.8550
78,0.002174,17.6088,199.8650
79,0.002006,17.6138,199.8750
80,0.001076,17.6187,199.8850
81,-0.001057,17.6237,199.8950
82,0.000603,17.6288,199.9050
83,0.000507,17.6337,199.9150
84,0.000839,17.6387,199.9250
92,0.001295,17.6787,200.0050
93,-0.001078,17.6837,200.0150
94,-0.001139,17.6887,200.0250
95,-0.000463,17.6938,200.0350
96,0.000395,17.6988,200.0450
97,-0.002247,17.7037,200.0550
98,0.000419,17.7088,200.0650
99,-0.000220,17.7138,200.0750
100,-0.000680,17.7187,200.0850
101,-0.001429,17.7237,200.0950
102,0.000311,17.7288,200.1050
103,-0.001076,17.7337,200.1150
104,-0.001213,17.7387,200.1250
105,-0.002043,17.7437,200.1350
106,-0.000458,17.7488,200.1450
107,-0.001515,17.7538,200.1550
108,-0.000533,17.7587,200.1650
109,-0.000722,17.7637,200.1750
110,0.000147,17.7687,200.1850
111,-0.001015,17.7737,200.1950
112,-0.000893,17.7788,200.2050
113,-0.002153,17.7837,200.2150
114,-0.000054,17.7887,200.2250
115,-0.000540,17.7937,200.2350
116,-0.001040,17.7987,200.2450
117,-0.002158,17.8037,200.2550
118,-0.000959,17.8081,200.2650
119,-0.001457,17.8138,200.2750
120,-0.001050,17.8187,200.2850
121,-0.002289,17.8237,200.2950
128,-0.002011,17.8581,200.3650
129,-0.002670,17.8638,200.3750
130,-0.000234,17.8681,200.3850
131,-0.001655,17.8737,200.3950
132,-0.001377,17.8781,200.4050
133,-0.001134,17.8838,200.4150
134,0.000503,17.8881,200.4250
135,-0.002415,17.8938,200.4350
136,-0.001681,17.8981,200.4450
137,-0.002534,17.9038,200.4550
138,-0.000671,17.9081,200.4650
139,-0.001777,17.9137,200.4750
140,-0.001945,17.9181,200.4850
141,-0.002532,17.9238,200.4950
142,-0.000512,17.9281,200.5050
143,-0.001024,17.9337,200.5150
144,-0.002256,17.9381,200.5250
145,-0.004428,17.9438,200.5350
146,-0.000729,17.9481,200.5450
147,-0.000150,17.9531,200.5550
148,-0.000942,17.9581,200.5650
149,-0.002759,17.9638,200.5750
150,-0.000089,17.9681,200.5850
151,-0.001181,17.9731,200.5950
152,-0.001707,17.9781,200.6050
153,-0.002850,17.9837,200.6150
154,-0.001845,17.9881,200.6250
155,-0.002967,17.9931,200.6350
156,-0.001122,17.9981,200.6450
157,-0.002240,18.0038,200.6550
164,-0.002969,18.0381,200.7250
165,-0.004438,18.0437,200.7350
166,-0.000884,18.0481,200.7450
167,-0.000680,18.0531,200.7550
168,-0.000734,18.0581,200.7650
169,-0.002579,18.0638,200.7750
170,-0.000599,18.0681,200.7850
171,-0.001354,18.0731,200.7950
172,-0.002371,18.0781,200.8050
173,-0.003846,18.0837,200.8150
174,-0.001917,18.0881,200.8250
175,-0.002745,18.0931,200.8350
176,-0.003138,18.0981,200.8450
177,-0.004508,18.1037,200.8550
178,-0.002280,18.1081,200.8650
179,-0.002165,18.1131,200.8750
180,-0.002385,18.1181,200.8850
181,-0.003154,18.1237,200.8950
182,-0.001106,18.1281,200.9050
183,-0.001438,18.1331,200.9150
184,-0.001092,18.1381,200.9250
185,-0.002565,18.1437,200.9350
186,-0.001069,18.1481,200.9450
187,-0.001365,18.1531,200.9550
188,-0.001651,18.1581,200.9650
189,-0.002764,18.1637,200.9750
190,-0.001662,18.1681,200.9850
191,-0.002263,18.1731,200.9950
192,-0.002892,18.1781,201.0050
200,-0.002878,18.2181,201.0850
201,-0.003203,18.2237,201.0950
202,-0.001047,18.2281,201.1050
203,-0.002149,18.2331,201.1150
204,-0.001571,18.2381,201.1250
205,-0.002635,18.2437,201.1350
206,-0.001976,18.2481,201.1450
207,-0.003147,18.2531,201.1550
208,-0.003365,18.2581,201.1650
209,-0.003437,18.2637,201.1750
210,-0.001810,18.2681,201.1850
211,-0.002427,18.2731,201.1950
212,-0.003332,18.2781,201.2050
213,-0.003954,18.2837,201.2150
214,-0.001524,18.2881,201.2250
215,-0.002160,18.2931,201.2350
216,-0.001326,18.2981,201.2450
217,-0.002270,18.3037,201.2550
218,-0.001043,18.3081,201.2650
219,-0.002822,18.3131,201.2750
220,-0.002745,18.3181,201.2850
221,-0.003977,18.3237,201.2950
222,-0.002214,18.3281,201.3050
223,-0.003098,18.3331,201.3150
224,-0.001833,18.3381,201.3250
225,-0.002446,18.3437,201.3350
226,-0.001941,18.3481,201.3450
227,-0.003011,18.3531,201.3550
228,-0.002888,18.3581,201.3650
229,-0.003736,18.3637,201.3750
236,-0.002888,18.3981,201.4450
237,-0.003591,18.4037,201.4550
238,-0.002167,18.4081,201.4650
239,-0.003682,18.4138,201.4750
240,-0.002296,18.4181,201.4850
241,-0.003848,18.4237,201.4950
242,-0.003556,18.4281,201.5050
243,-0.002810,18.4337,201.5150
244,-0.001742,18.4381,201.5250
245,-0.002663,18.4437,201.5350
246,-0.001220,18.4481,201.5450
247,-0.001599,18.4538,201.5550
248,-0.001482,18.4581,201.5650
249,-0.002941,18.4637,201.5750
250,-0.003243,18.4681,201.5850
251,-0.002640,18.4737,201.5950
252,-0.002259,18.4781,201.6050
253,-0.005013,18.4837,201.6150
254,-0.002142,18.4881,201.6250
255,-0.002425,18.4937,201.6350
256,-0.001363,18.4981,201.6450
257,-0.002294,18.5037,201.6550
258,-0.000267,18.5081,201.6650
259,-0.001651,18.5138,201.6750
260,-0.002715,18.5181,201.6850
261,-0.004620,18.5237,201.6950
262,-0.001709,18.5281,201.7050
263,-0.002953,18.5337,201.7150
264,-0.001466,18.5381,201.7250
265,-0.003023,18.5437,201.7350
272,-0.001623,18.5781,201.8050
273,-0.003018,18.5837,201.8150
274,-0.001265,18.5881,201.8250
275,-0.001870,18.5937,201.8350
276,-0.001863,18.5981,201.8450
277,-0.004061,18.6037,201.8550
278,-0.002406,18.6081,201.8650
279,-0.002969,18.6137,201.8750
280,-0.001634,18.6181,201.8850
281,-0.003376,18.6237,201.8950
282,-0.000818,18.6281,201.9050
283,-0.000447,18.6337,201.9150
284,-0.000199,18.6381,201.9250
285,-0.000905,18.6437,201.9350
286,-0.002039,18.6487,201.9450
287,-0.002717,18.6538,201.9550
288,-0.002018,18.6581,201.9650
289,-0.003297,18.6637,201.9750
290,-0.000409,18.6681,201.9850
291,-0.000828,18.6737,201.9950
292,-0.000531,18.6781,202.0050
293,-0.002831,18.6838,202.0150
294,-0.001616,18.6881,202.0250
295,-0.002607,18.6937,202.0350
296,-0.002885,18.6981,202.0450
297,-0.003393,18.7037,202.0550
298,-0.000496,18.7081,202.0650
299,-0.001045,18.7137,202.0750
300,-0.001623,18.7181,202.0850
308,-0.000208,18.7581,202.1650
309,-0.001134,18.7638,202.1750
310,0.000203,18.7681,202.1850
311,-0.001302,18.7737,202.1950
312,-0.001496,18.7781,202.2050
313,-0.003477,18.7837,202.2150
314,-0.001356,18.7881,202.2250
315,-0.001171,18.7937,202.2350
316,-0.000615,18.7981,202.2450
317,-0.001391,18.8038,202.2550
318,-0.000194,18.8081,202.2650
319,-0.002111,18.8137,202.2750
320,-0.001646,18.8181,202.2850
321,-0.002240,18.8238,202.2950
322,-0.000945,18.8281,202.3050
323,-0.001354,18.8337,202.3150
324,-0.001139,18.8381,202.3250
325,-0.002761,18.8438,202.3350
326,-0.001849,18.8481,202.3450
327,-0.001029,18.8531,202.3550
328,-0.000533,18.8581,202.3650
329,-0.002184,18.8637,202.3750
330,-0.000288,18.8681,202.3850
331,-0.000496,18.8731,202.3950
332,-0.000245,18.8756,202.4050
333,-0.002051,18.8838,202.4150
334,-0.000680,18.8881,202.4250
335,-0.001634,18.8931,202.4350
336,-0.000874,18.8981,202.4450
337,-0.002703,18.9037,202.4550
344,0.000320,18.9381,202.5250
345,-0.000720,18.9437,202.5350
346,0.000931,18.9481,202.5450
347,0.000388,18.9531,202.5550
348,-0.000005,18.9581,202.5650
349,-0.000631,18.9638,202.5750
350,0.000320,18.9659,202.5850
351,-0.000281,18.9706,202.5950
352,0.001391,18.9756,202.6050
353,0.000503,18.9838,202.6150
354,0.000552,18.9881,202.6250
355,-0.000009,18.9931,202.6350
356,-0.000231,18.9981,202.6450
357,-0.001501,19.0037,202.6550
358,0.000311,19.0081,202.6650
359,-0.000479,19.0131,202.6750
360,0.000278,19.0156,202.6850
361,-0.001375,19.0209,202.6950
362,0.000468,19.0259,202.7050
363,0.000295,19.0331,202.7150
364,-0.000203,19.0381,202.7250
365,-0.000482,19.0437,202.7350
366,0.000804,19.0481,202.7450
367,0.000068,19.0531,202.7550
368,0.000274,19.0581,202.7650
369,-0.000337,19.0631,202.7750
370,0.000299,19.0656,202.7850
371,-0.001052,19.0706,202.7950
372,0.000549,19.0756,202.8050
373,-0.000411,19.0806,202.8150
380,0.001452,19.1156,202.8850
381,-0.000180,19.1206,202.8950
382,0.002789,19.1256,202.9050
383,0.000168,19.1306,202.9150
384,-0.000449,19.1356,202.9250
385,0.000007,19.1406,202.9350
386,0.001763,19.1456,202.9450
387,0.000063,19.1506,202.9550
388,0.001302,19.1556,202.9650
389,0.002001,19.1606,202.9750
390,0.001246,19.1656,202.9850
391,-0.000269,19.1706,202.9950
392,0.001805,19.1756,203.0050
393,0.001143,19.1806,203.0150
394,0.001955,19.1856,203.0250
395,0.000877,19.1906,203.0350
396,0.000648,19.1956,203.0450
397,-0.000856,19.2006,203.0550
398,0.001447,19.2056,203.0650
399,0.001817,19.2106,203.0750
400,0.001552,19.2156,203.0850
401,-0.000372,19.2206,203.0950
402,0.001913,19.2256,203.1050
403,0.000458,19.2306,203.1150
404,0.001667,19.2356,203.1250
405,0.002672,19.2406,203.1350
406,0.002722,19.2456,203.1450
407,0.001747,19.2506,203.1550
408,0.002792,19.2556,203.1650
416,0.002754,19.2956,203.2460
417,0.000115,19.3009,203.2560
418,0.001655,19.3059,203.2660
419,0.001887,19.3106,203.2760
420,0.001842,19.3156,203.2860
421,0.001683,19.3209,203.2960
422,0.003231,19.3259,203.3060
423,0.002754,19.3306,203.3160
424,0.003208,19.3356,203.3260
425,0.002698,19.3409,203.3360
426,0.002588,19.3459,203.3460
427,0.002859,19.3506,203.3560
428,0.001994,19.3556,203.3660
429,0.000295,19.3609,203.3760
430,0.001349,19.3659,203.3860
431,0.001536,19.3706,203.3960
432,0.003933,19.3756,203.4060
433,0.003049,19.3809,203.4160
434,0.003844,19.3859,203.4260
435,0.002441,19.3906,203.4360
436,0.001849,19.3956,203.4460
437,0.001756,19.4009,203.4560
438,0.003112,19.4059,203.4660
439,0.003386,19.4106,203.4760
440,0.003404,19.4156,203.4860
441,0.002829,19.4209,203.4960
442,0.002939,19.4259,203.5060
443,0.002813,19.4306,203.5160
444,0.002579,19.4356,203.5260
445,0.001658,19.4409,203.5360
452,0.003409,19.4756,203.6060
453,0.002361,19.4809,203.6160
454,0.003089,19.4859,203.6260
455,0.002796,19.4906,203.6360
456,0.003168,19.4956,203.6460
457,0.002663,19.5009,203.6560
458,0.003294,19.5059,203.6660
459,0.001782,19.5106,203.6760
460,0.002778,19.5156,203.6860
461,0.001772,19.5209,203.6960
462,0.002266,19.5259,203.7060
463,0.003467,19.5306,203.7160
464,0.003708,19.5356,203.7260
465,0.001695,19.5409,203.7360
466,0.003199,19.5459,203.7460
467,0.003362,19.5506,203.7560
468,0.003545,19.5556,203.7660
469,0.003930,19.5609,203.7760
470,0.004961,19.5659,203.7860
471,0.004099,19.5706,203.7960
472,0.003820,19.5756,203.8060
473,0.003248,19.5809,203.8160
474,0.005237,19.5859,203.8260
475,0.005520,19.5906,203.8360
476,0.004258,19.5956,203.8460
477,0.002441,19.6009,203.8560
478,0.004908,19.6059,203.8660
479,0.004466,19.6106,203.8760
480,0.003884,19.6156,203.8860
481,0.004414,19.6209,203.8960
488,0.003605,19.6556,203.9660
489,0.002485,19.6609,203.9760
490,0.002918,19.6659,203.9860
491,0.004354,19.6706,203.9960
492,0.004721,19.6756,204.0060
493,0.003285,19.6809,204.0160
494,0.003795,19.6859,204.0260
495,0.004295,19.6909,204.0360
496,0.004059,19.6959,204.0460
497,0.003528,19.7009,204.0560
498,0.004973,19.7059,204.0660
499,0.004213,19.7106,204.0760
500,0.004246,19.7156,204.0860
501,0.003926,19.7209,204.0960
502,0.003526,19.7259,204.1060
503,0.003061,19.7306,204.1160
504,0.003778,19.7356,204.1260
505,0.003276,19.7409,204.1360
506,0.003131,19.7459,204.1460
507,0.003285,19.7506,204.1560
508,0.004279,19.7556,204.1660
509,0.003175,19.7609,204.1760
510,0.003089,19.7659,204.1860
511,0.005011,19.7706,204.1960
512,0.004232,19.7756,204.2060
513,0.003044,19.7809,204.2160
514,0.005025,19.7859,204.2260
515,0.005922,19.7906,204.2360
516,0.005004,19.7956,204.2460
518,0.005399,19.8059,204.2660
519,0.005137,19.8106,204.2760
520,0.004279,19.8156,204.2860
521,0.002976,19.8209,204.2960
522,0.004248,19.8259,204.3060
523,0.004709,19.8306,204.3160
524,0.005429,19.8356,204.3260
525,0.004910,19.8409,204.3360
526,0.005163,19.8459,204.3460
527,0.005230,19.8506,204.3560
528,0.005202,19.8556,204.3660
529,0.003851,19.8606,204.3760
530,0.004548,19.8656,204.3860
531,0.006201,19.8681,204.3960
532,0.006004,19.8756,204.4060
533,0.003327,19.8809,204.4160
534,0.003961,19.8859,204.4260
535,0.004557,19.8906,204.4360
536,0.003290,19.8956,204.4460
537,0.002481,19.9006,204.4560
538,0.003762,19.9056,204.4660
539,0.004786,19.9106,204.4760
540,0.003855,19.9131,204.4860
541,0.003044,19.9209,204.4960
542,0.003271,19.9259,204.5060
554,0.005726,19.9856,204.6260
555,0.005784,19.9906,204.6360
556,0.004529,19.9953,204.6460
