Point No.,Normal Force [N],Gap [mm],Time [s]
1.0,-0.003956,16.0056,689.7650
2.0,0.000613,16.0306,689.7750
3.0,0.034912,16.0419,689.7850
4.0,0.012027,16.0475,689.7950
5.0,-0.008144,16.0525,689.8051
6.0,-0.011548,16.0581,689.8150
7.0,0.002745,16.0631,689.8250
8.0,0.000998,16.0675,689.8350
9.0,-0.008384,16.0725,689.8441
10.0,-0.002665,16.0775,689.8540
11.0,-0.000587,16.0825,689.8640
12.0,-0.007868,16.0875,689.8740
13.0,-0.007243,16.0925,689.8840
14.0,-0.004092,16.0975,689.8940
15.0,0.001019,16.1025,689.9041
16.0,-0.007711,16.1081,689.9150
17.0,-0.006128,16.1125,689.9250
18.0,-0.004468,16.1175,689.9351
19.0,-0.009923,16.1225,689.9450
20.0,-0.012506,16.1275,689.9550
21.0,-0.004601,16.1325,689.9650
22.0,-0.003404,16.1375,689.9750
23.0,-0.006678,16.1425,689.9850
24.0,-0.008536,16.1475,689.9951
25.0,-0.001534,16.1531,690.0050
26.0,-0.008485,16.1575,690.0150
27.0,-0.006944,16.1625,690.0250
28.0,-0.003587,16.1675,690.0350
29.0,-0.003011,16.1725,690.0450
30.0,-0.007040,16.1775,690.0540
31.0,-0.004365,16.1825,690.0640
32.0,-0.002413,16.1875,690.0740
33.0,-0.000874,16.1925,690.0840
34.0,-0.005118,16.1981,690.0941
35.0,-0.002156,16.2025,690.1040
36.0,-0.004342,16.2075,690.1140
37.0,-0.002277,16.2125,690.1240
38.0,-0.001831,16.2175,690.1340
39.0,0.003243,16.2225,690.1440
40.0,-0.004047,16.2275,690.1541
41.0,-0.005396,16.2325,690.1641
42.0,-0.004007,16.2375,690.1740
43.0,0.000009,16.2425,690.1840
44.0,-0.002128,16.2475,690.1940
45.0,-0.001828,16.2525,690.2040
46.0,0.000327,16.2575,690.2141
47.0,0.000809,16.2625,690.2241
48.0,-0.003582,16.2675,690.2340
49.0,-0.001810,16.2725,690.2440
50.0,-0.000327,16.2775,690.2540
51.0,0.000741,16.2825,690.2640
52.0,-0.002726,16.2875,690.2740
53.0,0.000344,16.2931,690.2841
54.0,-0.001833,16.2975,690.2940
55.0,-0.003026,16.3025,690.3040
56.0,-0.002142,16.3075,690.3140
57.0,0.001676,16.3125,690.3240
58.0,-0.004202,16.3175,690.3340
59.0,-0.002605,16.3225,690.3441
60.0,-0.000475,16.3275,690.3540
61.0,0.002266,16.3325,690.3640
62.0,-0.000994,16.3375,690.3740
63.0,0.001232,16.3425,690.3840
64.0,0.001924,16.3475,690.3940
65.0,-0.000535,16.3525,690.4041
66.0,-0.001513,16.3575,690.4141
67.0,0.000781,16.3625,690.4240
68.0,-0.001417,16.3675,690.4340
69.0,-0.000718,16.3725,690.4440
70.0,-0.000816,16.3775,690.4540
71.0,0.000652,16.3825,690.4641
72.0,0.000040,16.3875,690.4741
73.0,0.000182,16.3925,690.4840
74.0,0.000540,16.3975,690.4940
75.0,0.000442,16.4025,690.5040
76.0,-0.003474,16.4075,690.5140
77.0,-0.001936,16.4125,690.5240
78.0,-0.001751,16.4175,690.5341
79.0,0.001143,16.4225,690.5440
80.0,0.000367,16.4275,690.5540
81.0,0.000853,16.4331,690.5640
82.0,-0.002202,16.4375,690.5740
83.0,-0.002703,16.4425,690.5840
84.0,-0.002803,16.4475,690.5941
85.0,-0.000547,16.4525,690.6040
86.0,-0.001394,16.4575,690.6140
87.0,-0.002656,16.4625,690.6240
88.0,-0.002352,16.4675,690.6340
89.0,0.000856,16.4725,690.6440
90.0,-0.000271,16.4775,690.6541
91.0,0.000112,16.4825,690.6641
92.0,-0.001363,16.4875,690.6740
93.0,-0.001235,16.4925,690.6840
94.0,-0.003215,16.4975,690.6940
95.0,-0.000673,16.5025,690.7040
96.0,-0.003114,16.5075,690.7141
97.0,-0.002072,16.5125,690.7241
98.0,-0.001422,16.5175,690.7340
99.0,0.000168,16.5225,690.7440
100.0,-0.001847,16.5275,690.7540
101.0,-0.000858,16.5325,690.7640
102.0,-0.001386,16.5375,690.7740
103.0,0.002684,16.5425,690.7841
104.0,0.001588,16.5475,690.7940
105.0,0.002032,16.5525,690.8040
106.0,0.000423,16.5575,690.8140
107.0,0.002584,16.5625,690.8240
108.0,0.003414,16.5675,690.8340
109.0,0.003182,16.5725,690.8441
110.0,0.003061,16.5775,690.8540
111.0,0.002838,16.5825,690.8640
112.0,-0.000070,16.5875,690.8740
113.0,0.001887,16.5925,690.8840
114.0,0.002055,16.5975,690.8940
115.0,0.000472,16.6025,690.9041
116.0,-0.003353,16.6075,690.9141
117.0,-0.002368,16.6125,690.9240
118.0,-0.003484,16.6175,690.9340
119.0,-0.000638,16.6225,690.9440
120.0,-0.003299,16.6275,690.9540
121.0,-0.001856,16.6331,690.9641
122.0,-0.001183,16.6375,690.9741
123.0,-0.000821,16.6425,690.9840
124.0,-0.001164,16.6475,690.9940
125.0,0.001286,16.6525,691.0040
126.0,-0.000825,16.6575,691.0140
127.0,-0.000362,16.6619,691.0240
128.0,-0.000809,16.6669,691.0341
129.0,0.000582,16.6725,691.0440
130.0,-0.000645,16.6775,691.0540
131.0,-0.000704,16.6825,691.0640
132.0,-0.002668,16.6875,691.0740
133.0,-0.002088,16.6925,691.0840
134.0,-0.000297,16.6969,691.0941
135.0,0.000809,16.7019,691.1040
136.0,-0.000269,16.7069,691.1140
137.0,-0.000435,16.7125,691.1240
138.0,-0.001805,16.7169,691.1340
139.0,-0.000224,16.7219,691.1440
140.0,0.000526,16.7275,691.1541
141.0,0.001471,16.7325,691.1641
142.0,0.001326,16.7375,691.1740
143.0,0.002270,16.7419,691.1840
144.0,0.002881,16.7469,691.1940
145.0,0.004662,16.7525,691.2040
146.0,0.002925,16.7569,691.2141
147.0,0.000341,16.7619,691.2241
148.0,-0.000940,16.7669,691.2340
149.0,-0.000044,16.7725,691.2440
150.0,-0.002371,16.7775,691.2540
151.0,-0.003234,16.7825,691.2640
152.0,-0.001585,16.7869,691.2740
153.0,0.001938,16.7919,691.2841
154.0,0.002607,16.7969,691.2940
155.0,0.003699,16.8019,691.3040
156.0,0.000751,16.8069,691.3140
157.0,0.001125,16.8119,691.3240
158.0,-0.000117,16.8169,691.3340
159.0,0.001314,16.8225,691.3441
160.0,0.000692,16.8275,691.3540
161.0,0.001718,16.8325,691.3640
162.0,0.001358,16.8369,691.3740
163.0,0.002485,16.8419,691.3840
164.0,-0.000061,16.8469,691.3940
165.0,-0.000316,16.8519,691.4041
166.0,-0.001171,16.8569,691.4141
167.0,0.000851,16.8619,691.4240
168.0,-0.000397,16.8675,691.4340
169.0,0.000549,16.8725,691.4440
170.0,0.000042,16.8769,691.4540
171.0,-0.000673,16.8819,691.4641
172.0,-0.000517,16.8869,691.4741
173.0,0.001791,16.8919,691.4840
174.0,-0.000290,16.8969,691.4940
175.0,-0.000159,16.9019,691.5040
176.0,-0.001155,16.9069,691.5140
177.0,-0.000129,16.9125,691.5240
178.0,-0.000963,16.9169,691.5341
179.0,-0.000498,16.9219,691.5440
180.0,0.000063,16.9269,691.5540
181.0,0.002988,16.9319,691.5640
182.0,0.001305,16.9369,691.5740
183.0,0.001574,16.9419,691.5840
184.0,0.000970,16.9469,691.5941
185.0,0.002273,16.9519,691.6040
186.0,0.001938,16.9569,691.6140
187.0,0.000662,16.9619,691.6240
188.0,0.000914,16.9669,691.6340
189.0,0.002149,16.9719,691.6440
190.0,-0.000330,16.9769,691.6541
191.0,0.000461,16.9819,691.6641
192.0,-0.000510,16.9869,691.6740
193.0,0.000683,16.9919,691.6840
194.0,-0.000823,16.9969,691.6940
195.0,0.000358,17.0019,691.7040
196.0,0.000379,17.0069,691.7141
197.0,0.000229,17.0119,691.7241
198.0,-0.000956,17.0169,691.7340
199.0,-0.001125,17.0213,691.7440
200.0,-0.001845,17.0262,691.7540
201.0,0.000687,17.0319,691.7640
202.0,-0.001536,17.0362,691.7740
203.0,-0.001835,17.0412,691.7841
204.0,-0.000461,17.0463,691.7940
205.0,0.001571,17.0519,691.8040
206.0,0.001083,17.0569,691.8140
207.0,0.001644,17.0619,691.8240
208.0,0.002546,17.0663,691.8340
209.0,0.002186,17.0719,691.8441
210.0,-0.000762,17.0763,691.8540
211.0,0.000729,17.0812,691.8640
212.0,0.000821,17.0863,691.8740
213.0,0.001204,17.0913,691.8840
214.0,-0.000278,17.0962,691.8940
215.0,-0.000987,17.1019,691.9041
216.0,-0.000264,17.1069,691.9141
217.0,0.002079,17.1119,691.9240
218.0,0.003236,17.1163,691.9340
219.0,0.001875,17.1213,691.9440
220.0,-0.000150,17.1262,691.9540
221.0,0.000231,17.1313,691.9641
222.0,-0.000585,17.1363,691.9741
223.0,0.000788,17.1413,691.9840
224.0,0.001260,17.1469,691.9940
225.0,0.001817,17.1519,692.0040
226.0,0.001782,17.1569,692.0140
227.0,-0.000456,17.1613,692.0240
228.0,-0.001083,17.1662,692.0341
229.0,0.000673,17.1713,692.0440
230.0,0.001178,17.1762,692.0540
231.0,0.001375,17.1813,692.0640
232.0,-0.000690,17.1863,692.0740
233.0,-0.000033,17.1913,692.0840
234.0,0.000933,17.1969,692.0941
235.0,0.000758,17.2019,692.1040
236.0,-0.000374,17.2063,692.1140
237.0,0.000030,17.2112,692.1240
238.0,-0.000030,17.2162,692.1340
239.0,0.000362,17.2213,692.1440
240.0,-0.001265,17.2262,692.1541
241.0,-0.001185,17.2312,692.1641
242.0,-0.000416,17.2362,692.1740
243.0,-0.001856,17.2412,692.1840
244.0,-0.001487,17.2469,692.1940
245.0,0.000743,17.2519,692.2040
246.0,0.001389,17.2563,692.2141
247.0,-0.000599,17.2612,692.2241
248.0,-0.000755,17.2662,692.2340
249.0,0.002020,17.2713,692.2440
250.0,0.001323,17.2763,692.2540
251.0,-0.000416,17.2812,692.2640
252.0,-0.001211,17.2862,692.2740
253.0,0.000701,17.2919,692.2841
254.0,0.001906,17.2969,692.2940
255.0,0.000323,17.3012,692.3040
256.0,-0.000465,17.3062,692.3140
257.0,0.000164,17.3113,692.3240
258.0,-0.001728,17.3162,692.3340
259.0,-0.003619,17.3212,692.3441
260.0,-0.002022,17.3262,692.3540
261.0,0.000528,17.3313,692.3640
262.0,-0.000433,17.3363,692.3740
263.0,-0.001244,17.3419,692.3840
264.0,0.000175,17.3463,692.3940
265.0,0.001803,17.3513,692.4041
266.0,0.000800,17.3563,692.4141
267.0,-0.000306,17.3613,692.4240
268.0,-0.001482,17.3662,692.4340
269.0,-0.001805,17.3712,692.4440
270.0,-0.001244,17.3763,692.4540
271.0,0.000152,17.3813,692.4641
272.0,0.001059,17.3869,692.4741
273.0,-0.000419,17.3919,692.4840
274.0,-0.001377,17.3963,692.4940
275.0,-0.000755,17.4012,692.5040
276.0,-0.000082,17.4062,692.5140
277.0,-0.000098,17.4113,692.5240
278.0,0.000519,17.4163,692.5341
279.0,0.001005,17.4212,692.5440
280.0,-0.000500,17.4263,692.5540
281.0,-0.003400,17.4319,692.5640
282.0,-0.001765,17.4369,692.5740
283.0,-0.000849,17.4413,692.5840
284.0,-0.001211,17.4463,692.5941
285.0,-0.000874,17.4512,692.6040
286.0,0.000253,17.4563,692.6140
287.0,-0.001316,17.4613,692.6240
288.0,-0.000503,17.4662,692.6340
289.0,0.000171,17.4713,692.6440
290.0,-0.002352,17.4762,692.6541
291.0,-0.003283,17.4819,692.6641
292.0,-0.001202,17.4862,692.6740
293.0,-0.001363,17.4912,692.6840
294.0,-0.001779,17.4963,692.6940
295.0,-0.002319,17.5013,692.7040
296.0,0.000552,17.5062,692.7141
297.0,-0.001667,17.5112,692.7241
298.0,-0.004933,17.5162,692.7340
299.0,-0.002904,17.5212,692.7440
300.0,-0.001704,17.5269,692.7540
301.0,-0.001669,17.5319,692.7640
302.0,-0.001945,17.5362,692.7740
303.0,-0.002436,17.5412,692.7841
304.0,-0.000767,17.5462,692.7940
305.0,-0.000271,17.5513,692.8040
306.0,0.000500,17.5563,692.8140
307.0,-0.000921,17.5612,692.8240
308.0,-0.001782,17.5662,692.8340
309.0,-0.002799,17.5719,692.8441
310.0,-0.001697,17.5769,692.8540
311.0,-0.002490,17.5813,692.8640
312.0,-0.001372,17.5863,692.8740
313.0,-0.004606,17.5912,692.8840
314.0,-0.006201,17.5962,692.8940
315.0,-0.003000,17.6012,692.9041
316.0,-0.000687,17.6062,692.9141
317.0,-0.002523,17.6113,692.9240
318.0,-0.002022,17.6163,692.9340
319.0,-0.001637,17.6219,692.9440
320.0,-0.001169,17.6262,692.9540
321.0,-0.002696,17.6312,692.9641
322.0,-0.002831,17.6362,692.9741
323.0,-0.004763,17.6412,692.9840
324.0,-0.003762,17.6462,692.9940
325.0,-0.002212,17.6512,693.0040
326.0,-0.001899,17.6562,693.0140
327.0,-0.002602,17.6612,693.0240
328.0,-0.002960,17.6669,693.0341
329.0,-0.004323,17.6719,693.0440
330.0,-0.006128,17.6762,693.0540
331.0,-0.006175,17.6812,693.0640
332.0,0.000456,17.6863,693.0740
333.0,0.000231,17.6912,693.0840
334.0,0.001080,17.6963,693.0941
335.0,-0.000755,17.7012,693.1040
336.0,-0.000285,17.7062,693.1140
337.0,-0.001482,17.7119,693.1240
338.0,-0.002107,17.7162,693.1340
339.0,-0.003320,17.7212,693.1440
340.0,-0.002464,17.7263,693.1541
341.0,-0.003187,17.7312,693.1641
342.0,-0.002224,17.7362,693.1740
343.0,-0.001361,17.7412,693.1840
344.0,0.000655,17.7463,693.1940
345.0,-0.001782,17.7512,693.2040
346.0,-0.001737,17.7562,693.2141
347.0,-0.000023,17.7612,693.2241
348.0,-0.000648,17.7662,693.2340
349.0,-0.004968,17.7712,693.2440
350.0,-0.004092,17.7762,693.2540
351.0,-0.003612,17.7812,693.2640
352.0,-0.001679,17.7862,693.2740
353.0,-0.002808,17.7912,693.2841
354.0,-0.001050,17.7962,693.2940
355.0,-0.001863,17.8012,693.3040
356.0,-0.001903,17.8063,693.3140
357.0,-0.001955,17.8113,693.3240
358.0,-0.001129,17.8162,693.3340
359.0,-0.011924,17.8212,693.3441
360.0,-0.011026,17.8262,693.3540
361.0,-0.002418,17.8313,693.3640
362.0,0.000005,17.8363,693.3740
363.0,-0.002303,17.8413,693.3840
364.0,-0.001293,17.8463,693.3940
365.0,-0.004000,17.8513,693.4041
366.0,-0.007131,17.8562,693.4141
367.0,-0.006713,17.8612,693.4240
368.0,-0.003666,17.8663,693.4340
369.0,-0.003879,17.8712,693.4440
370.0,-0.002600,17.8762,693.4540
371.0,-0.004791,17.8812,693.4641
372.0,-0.003671,17.8862,693.4741
373.0,-0.002333,17.8913,693.4840
374.0,-0.001723,17.8956,693.4940
375.0,-0.003666,17.9012,693.5040
376.0,-0.001008,17.9062,693.5140
377.0,-0.002378,17.9113,693.5240
378.0,-0.001550,17.9162,693.5341
379.0,-0.003519,17.9212,693.5440
380.0,-0.001646,17.9256,693.5540
381.0,-0.000690,17.9313,693.5640
382.0,-0.000154,17.9356,693.5740
383.0,-0.002836,17.9406,693.5840
384.0,-0.001859,17.9456,693.5941
385.0,-0.003818,17.9512,693.6040
386.0,-0.002483,17.9563,693.6140
387.0,-0.002366,17.9612,693.6240
388.0,-0.001529,17.9656,693.6340
389.0,-0.004220,17.9712,693.6440
390.0,-0.002771,17.9756,693.6541
391.0,-0.003428,17.9806,693.6641
392.0,-0.002413,17.9856,693.6740
393.0,-0.004982,17.9912,693.6840
394.0,-0.003818,17.9963,693.6940
395.0,-0.007365,18.0006,693.7040
396.0,-0.006773,18.0062,693.7141
397.0,-0.006070,18.0112,693.7241
398.0,-0.002464,18.0156,693.7340
399.0,-0.004449,18.0206,693.7440
400.0,-0.003362,18.0256,693.7540
401.0,-0.003009,18.0306,693.7640
402.0,-0.001700,18.0356,693.7740
403.0,-0.006229,18.0406,693.7841
404.0,-0.005127,18.0456,693.7940
405.0,-0.004281,18.0512,693.8040
406.0,-0.003063,18.0556,693.8140
407.0,-0.006252,18.0606,693.8240
408.0,-0.003769,18.0656,693.8340
409.0,-0.003192,18.0706,693.8441
410.0,-0.002794,18.0756,693.8540
411.0,-0.003030,18.0806,693.8640
412.0,-0.001545,18.0856,693.8740
413.0,-0.003753,18.0906,693.8840
414.0,-0.002801,18.0956,693.8940
415.0,-0.006554,18.1006,693.9041
416.0,-0.005586,18.1056,693.9150
417.0,-0.001083,18.1106,693.9250
418.0,-0.000096,18.1156,693.9351
419.0,-0.000461,18.1206,693.9450
420.0,-0.001059,18.1256,693.9550
421.0,-0.000435,18.1306,693.9650
422.0,-0.000959,18.1356,693.9750
423.0,-0.003528,18.1406,693.9850
424.0,-0.002630,18.1456,693.9951
425.0,-0.001337,18.1506,694.0050
426.0,-0.001279,18.1556,694.0150
427.0,-0.002701,18.1606,694.0250
428.0,-0.001253,18.1656,694.0350
429.0,0.000753,18.1706,694.0450
430.0,0.000949,18.1756,694.0551
431.0,-0.001791,18.1806,694.0651
432.0,-0.001087,18.1856,694.0750
433.0,-0.000246,18.1913,694.0850
434.0,-0.000250,18.1956,694.0950
435.0,-0.002083,18.2006,694.1050
436.0,-0.000945,18.2056,694.1151
437.0,-0.000601,18.2106,694.1251
438.0,0.000568,18.2156,694.1350
439.0,-0.000388,18.2206,694.1450
440.0,0.000388,18.2256,694.1550
441.0,-0.001987,18.2306,694.1650
442.0,-0.001560,18.2356,694.1750
443.0,-0.001132,18.2406,694.1851
444.0,-0.000231,18.2456,694.1950
445.0,-0.002301,18.2506,694.2050
446.0,-0.000659,18.2556,694.2150
447.0,0.000281,18.2606,694.2250
448.0,0.000479,18.2656,694.2350
449.0,0.000129,18.2706,694.2451
450.0,0.000297,18.2756,694.2550
451.0,0.000297,18.2806,694.2650
452.0,-0.001260,18.2856,694.2750
453.0,-0.002322,18.2906,694.2850
454.0,-0.001005,18.2956,694.2950
455.0,-0.002736,18.3006,694.3051
456.0,-0.003615,18.3056,694.3151
457.0,-0.003818,18.3106,694.3250
458.0,-0.001927,18.3156,694.3350
459.0,-0.002207,18.3206,694.3450
460.0,-0.002149,18.3256,694.3550
461.0,-0.003757,18.3312,694.3651
462.0,-0.002780,18.3356,694.3751
463.0,-0.003521,18.3406,694.3850
464.0,-0.002212,18.3456,694.3950
465.0,-0.003070,18.3506,694.4050
466.0,-0.004019,18.3556,694.4150
467.0,-0.003453,18.3606,694.4250
468.0,-0.000220,18.3656,694.4351
469.0,-0.000914,18.3706,694.4450
470.0,0.000187,18.3756,694.4550
471.0,-0.001431,18.3806,694.4650
472.0,-0.000804,18.3856,694.4750
473.0,-0.000339,18.3906,694.4850
474.0,0.001005,18.3956,694.4951
475.0,-0.000765,18.4006,694.5050
476.0,-0.001976,18.4056,694.5150
477.0,-0.003713,18.4106,694.5250
478.0,-0.002483,18.4156,694.5350
479.0,-0.003767,18.4206,694.5450
480.0,-0.004370,18.4256,694.5551
481.0,-0.004728,18.4306,694.5651
482.0,-0.002336,18.4356,694.5750
483.0,-0.001716,18.4406,694.5850
484.0,-0.001223,18.4456,694.5950
485.0,-0.003951,18.4512,694.6050
486.0,-0.001976,18.4556,694.6151
487.0,-0.002107,18.4606,694.6251
488.0,-0.002941,18.4656,694.6350
489.0,-0.003834,18.4706,694.6450
490.0,-0.000115,18.4756,694.6550
491.0,-0.001431,18.4806,694.6650
492.0,-0.002829,18.4856,694.6750
493.0,-0.004127,18.4912,694.6851
494.0,-0.003736,18.4956,694.6950
495.0,-0.003030,18.5006,694.7050
496.0,-0.002532,18.5056,694.7150
497.0,-0.004314,18.5106,694.7250
498.0,-0.001192,18.5156,694.7350
499.0,-0.000739,18.5206,694.7451
500.0,-0.000194,18.5256,694.7550
501.0,-0.001927,18.5312,694.7650
502.0,-0.001344,18.5356,694.7750
503.0,-0.002364,18.5406,694.7850
504.0,-0.001480,18.5456,694.7950
505.0,-0.005539,18.5506,694.8051
506.0,-0.002993,18.5556,694.8151
507.0,-0.002658,18.5606,694.8250
508.0,-0.002390,18.5656,694.8350
509.0,-0.004954,18.5706,694.8450
510.0,-0.003294,18.5756,694.8550
511.0,-0.003580,18.5806,694.8651
512.0,-0.001616,18.5856,694.8751
513.0,-0.003213,18.5912,694.8850
514.0,-0.002266,18.5956,694.8950
515.0,-0.005081,18.6006,694.9050
516.0,-0.004524,18.6056,694.9150
517.0,-0.004015,18.6106,694.9250
518.0,-0.001831,18.6156,694.9351
519.0,-0.003694,18.6206,694.9450
520.0,-0.002535,18.6256,694.9550
521.0,-0.004545,18.6312,694.9650
522.0,-0.003521,18.6356,694.9750
523.0,-0.004557,18.6406,694.9850
524.0,-0.003276,18.6456,694.9951
525.0,-0.004347,18.6506,695.0050
526.0,-0.003788,18.6556,695.0150
527.0,-0.006942,18.6606,695.0250
528.0,-0.004994,18.6656,695.0350
529.0,-0.007844,18.6712,695.0450
530.0,-0.004919,18.6756,695.0551
531.0,-0.005614,18.6806,695.0651
532.0,-0.003121,18.6856,695.0750
533.0,-0.002626,18.6906,695.0850
534.0,-0.001415,18.6956,695.0950
535.0,-0.004253,18.7006,695.1050
536.0,-0.003493,18.7056,695.1151
537.0,-0.005527,18.7106,695.1251
538.0,-0.002773,18.7156,695.1350
539.0,-0.003411,18.7206,695.1450
540.0,-0.001494,18.7256,695.1550
541.0,-0.002691,18.7306,695.1650
542.0,-0.001980,18.7356,695.1750
543.0,-0.004141,18.7406,695.1851
544.0,-0.004571,18.7456,695.1950
545.0,-0.010056,18.7506,695.2050
546.0,-0.008887,18.7556,695.2150
547.0,-0.007157,18.7606,695.2250
548.0,-0.004003,18.7656,695.2350
549.0,-0.005226,18.7706,695.2451
550.0,-0.002588,18.7756,695.2550
551.0,-0.003301,18.7806,695.2650
552.0,-0.002160,18.7856,695.2750
553.0,-0.004987,18.7906,695.2850
554.0,-0.003559,18.7956,695.2950
555.0,-0.009296,18.8006,695.3051
556.0,-0.006362,18.8056,695.3151
557.0,-0.006816,18.8112,695.3250
558.0,-0.003704,18.8156,695.3350
559.0,-0.004728,18.8206,695.3450
560.0,-0.005317,18.8256,695.3550
561.0,-0.003914,18.8306,695.3651
562.0,0.000376,18.8356,695.3751
563.0,-0.004555,18.8406,695.3850
564.0,-0.004821,18.8456,695.3950
565.0,-0.003905,18.8506,695.4050
566.0,-0.002460,18.8556,695.4150
567.0,-0.005041,18.8606,695.4250
568.0,-0.004340,18.8656,695.4351
569.0,-0.006535,18.8706,695.4450
570.0,-0.004050,18.8756,695.4550
571.0,-0.003830,18.8806,695.4650
572.0,-0.002217,18.8856,695.4750
573.0,-0.005623,18.8906,695.4850
574.0,-0.002988,18.8956,695.4951
575.0,-0.003065,18.9006,695.5050
576.0,-0.004735,18.9056,695.5150
577.0,-0.006661,18.9106,695.5250
578.0,-0.003135,18.9156,695.5350
579.0,-0.003353,18.9206,695.5450
580.0,-0.003617,18.9256,695.5551
581.0,-0.005371,18.9306,695.5651
582.0,-0.003949,18.9350,695.5750
583.0,-0.006152,18.9406,695.5850
584.0,-0.004966,18.9456,695.5950
585.0,-0.006853,18.9506,695.6050
586.0,-0.004945,18.9556,695.6151
587.0,-0.006336,18.9606,695.6251
588.0,-0.004209,18.9650,695.6350
589.0,-0.005146,18.9706,695.6450
590.0,-0.000327,18.9750,695.6550
591.0,-0.002633,18.9806,695.6650
592.0,-0.003180,18.9850,695.6750
593.0,-0.006051,18.9906,695.6851
594.0,-0.002759,18.9956,695.6950
595.0,-0.004650,19.0006,695.7050
596.0,-0.004332,19.0050,695.7150
597.0,-0.004627,19.0106,695.7250
598.0,-0.002446,19.0150,695.7350
599.0,-0.004814,19.0200,695.7451
600.0,-0.003853,19.0250,695.7550
601.0,-0.005969,19.0306,695.7650
602.0,-0.002142,19.0350,695.7750
603.0,-0.007218,19.0400,695.7850
604.0,-0.007999,19.0450,695.7950
605.0,-0.006526,19.0506,695.8051
606.0,-0.001394,19.0550,695.8151
607.0,-0.003180,19.0600,695.8250
608.0,-0.002144,19.0650,695.8350
609.0,-0.004606,19.0706,695.8450
610.0,-0.003360,19.0750,695.8550
611.0,-0.005088,19.0800,695.8651
612.0,-0.004816,19.0850,695.8751
613.0,-0.006605,19.0906,695.8850
614.0,-0.003552,19.0950,695.8950
615.0,-0.011408,19.1000,695.9050
616.0,-0.009062,19.1050,695.9150
617.0,-0.007674,19.1106,695.9250
618.0,-0.003428,19.1150,695.9351
619.0,-0.004643,19.1200,695.9450
620.0,-0.001719,19.1250,695.9550
621.0,-0.003189,19.1306,695.9650
622.0,-0.001938,19.1350,695.9750
623.0,-0.011370,19.1400,695.9850
624.0,-0.015403,19.1450,695.9951
625.0,-0.013827,19.1506,696.0050
626.0,-0.006191,19.1550,696.0150
627.0,-0.003725,19.1600,696.0250
628.0,-0.002018,19.1650,696.0350
629.0,-0.005046,19.1706,696.0450
630.0,-0.003930,19.1750,696.0551
631.0,-0.005576,19.1800,696.0651
632.0,-0.003372,19.1850,696.0750
633.0,-0.005677,19.1906,696.0850
634.0,-0.003535,19.1950,696.0950
635.0,-0.006932,19.2000,696.1050
636.0,-0.004555,19.2050,696.1151
637.0,-0.006479,19.2106,696.1251
638.0,-0.003701,19.2150,696.1350
639.0,-0.003769,19.2200,696.1450
640.0,-0.002338,19.2250,696.1550
641.0,-0.003877,19.2306,696.1650
642.0,-0.002492,19.2350,696.1750
643.0,-0.004618,19.2400,696.1851
644.0,-0.003294,19.2450,696.1950
645.0,-0.006306,19.2506,696.2050
646.0,-0.005200,19.2550,696.2150
647.0,-0.005385,19.2600,696.2250
648.0,-0.003009,19.2650,696.2350
649.0,-0.005623,19.2706,696.2451
650.0,-0.002186,19.2750,696.2550
651.0,-0.005981,19.2806,696.2650
652.0,-0.003820,19.2850,696.2750
653.0,-0.006867,19.2906,696.2850
654.0,-0.002672,19.2950,696.2950
655.0,-0.003788,19.3000,696.3051
656.0,-0.001216,19.3050,696.3151
657.0,-0.005329,19.3106,696.3250
658.0,-0.003757,19.3150,696.3350
659.0,-0.002471,19.3206,696.3450
660.0,-0.000596,19.3256,696.3550
661.0,-0.004557,19.3306,696.3651
662.0,-0.002144,19.3350,696.3751
663.0,-0.008389,19.3400,696.3850
664.0,-0.006067,19.3450,696.3950
665.0,-0.005654,19.3506,696.4050
666.0,-0.003556,19.3550,696.4150
667.0,-0.004679,19.3600,696.4250
668.0,-0.003514,19.3650,696.4351
669.0,-0.005724,19.3706,696.4450
670.0,-0.003619,19.3750,696.4550
671.0,-0.006900,19.3806,696.4650
672.0,-0.004176,19.3850,696.4750
673.0,-0.004714,19.3906,696.4850
674.0,-0.001267,19.3950,696.4951
675.0,-0.006191,19.4006,696.5050
676.0,-0.005272,19.4050,696.5150
677.0,-0.007844,19.4106,696.5250
678.0,-0.003477,19.4150,696.5350
679.0,-0.002658,19.4206,696.5450
680.0,-0.002191,19.4250,696.5551
681.0,-0.001620,19.4306,696.5651
682.0,0.000397,19.4350,696.5750
683.0,-0.007077,19.4406,696.5850
684.0,-0.005015,19.4450,696.5950
685.0,-0.007257,19.4506,696.6050
686.0,-0.004295,19.4550,696.6151
687.0,-0.006621,19.4606,696.6251
688.0,-0.005789,19.4656,696.6350
689.0,-0.005696,19.4706,696.6450
690.0,-0.001494,19.4750,696.6550
691.0,-0.002572,19.4806,696.6650
692.0,-0.002593,19.4850,696.6750
693.0,-0.003400,19.4906,696.6851
694.0,-0.002570,19.4950,696.6950
695.0,-0.005293,19.5006,696.7050
696.0,-0.003135,19.5050,696.7150
697.0,-0.006077,19.5106,696.7250
698.0,-0.001171,19.5156,696.7350
699.0,-0.010563,19.5206,696.7451
700.0,-0.008429,19.5256,696.7550
701.0,-0.005191,19.5306,696.7650
702.0,-0.000124,19.5350,696.7750
703.0,-0.001817,19.5406,696.7850
704.0,-0.003168,19.5450,696.7950
705.0,-0.006388,19.5506,696.8051
706.0,-0.004442,19.5550,696.8151
707.0,-0.006479,19.5606,696.8250
708.0,-0.003161,19.5656,696.8350
709.0,-0.002976,19.5706,696.8450
710.0,-0.000615,19.5756,696.8550
711.0,-0.002635,19.5806,696.8651
712.0,-0.002048,19.5850,696.8751
713.0,-0.003528,19.5906,696.8850
714.0,-0.000108,19.5956,696.8950
715.0,-0.002691,19.6006,696.9050
716.0,-0.000795,19.6056,696.9150
717.0,-0.001412,19.6106,696.9250
718.0,0.000084,19.6156,696.9351
719.0,-0.001134,19.6206,696.9450
720.0,-0.002443,19.6256,696.9550
721.0,-0.005078,19.6306,696.9650
722.0,-0.001693,19.6356,696.9750
723.0,-0.005656,19.6406,696.9850
724.0,-0.002895,19.6456,696.9951
725.0,-0.003353,19.6506,697.0050
726.0,-0.000786,19.6556,697.0150
727.0,-0.002852,19.6606,697.0250
728.0,-0.002867,19.6656,697.0350
729.0,-0.002918,19.6706,697.0450
730.0,0.002380,19.6756,697.0551
731.0,0.000208,19.6806,697.0651
732.0,-0.000344,19.6850,697.0750
733.0,-0.004629,19.6906,697.0850
734.0,-0.001253,19.6950,697.0950
735.0,-0.002918,19.7006,697.1050
736.0,-0.002607,19.7050,697.1151
737.0,-0.002051,19.7106,697.1251
738.0,-0.000879,19.7156,697.1350
739.0,-0.005095,19.7206,697.1450
740.0,-0.001174,19.7250,697.1550
741.0,-0.001700,19.7306,697.1650
742.0,-0.000110,19.7350,697.1750
743.0,-0.004545,19.7406,697.1851
744.0,-0.002207,19.7450,697.1950
745.0,-0.003687,19.7506,697.2050
746.0,0.000047,19.7528,697.2150
747.0,0.000309,19.7578,697.2250
748.0,-0.000005,19.7656,697.2350
749.0,-0.004760,19.7706,697.2451
750.0,-0.004363,19.7750,697.2550
751.0,-0.004461,19.7806,697.2650
752.0,-0.000255,19.7850,697.2750
753.0,-0.004164,19.7906,697.2850
754.0,-0.003664,19.7950,697.2950
755.0,-0.003944,19.7978,697.3051
756.0,-0.001548,19.8031,697.3151
757.0,-0.002850,19.8081,697.3250
758.0,-0.003386,19.8150,697.3350
759.0,-0.004328,19.8206,697.3450
760.0,-0.002745,19.8250,697.3550
761.0,-0.003070,19.8306,697.3651
762.0,-0.002235,19.8350,697.3751
763.0,-0.004445,19.8406,697.3850
764.0,-0.003287,19.8450,697.3950
765.0,-0.003484,19.8478,697.4050
766.0,-0.000994,19.8528,697.4150
767.0,-0.004372,19.8578,697.4250
768.0,-0.003121,19.8650,697.4351
769.0,-0.002927,19.8706,697.4450
770.0,0.000554,19.8750,697.4550
771.0,-0.005375,19.8800,697.4650
772.0,-0.004620,19.8850,697.4750
773.0,-0.004641,19.8906,697.4850
774.0,-0.000065,19.8928,697.4951
775.0,-0.003149,19.8978,697.5050
776.0,-0.000959,19.9028,697.5150
777.0,-0.001868,19.9106,697.5250
778.0,-0.000832,19.9150,697.5350
779.0,-0.002032,19.9200,697.5450
780.0,-0.000842,19.9250,697.5551
781.0,-0.001936,19.9306,697.5651
782.0,-0.000613,19.9350,697.5750
783.0,-0.000935,19.9375,697.5850
784.0,-0.000877,19.9425,697.5950
785.0,-0.002738,19.9478,697.6050
786.0,-0.001562,19.9528,697.6151
787.0,-0.006979,19.9600,697.6251
788.0,-0.006170,19.9650,697.6350
789.0,-0.004445,19.9706,697.6450
790.0,-0.002499,19.9750,697.6550
791.0,-0.004931,19.9800,697.6650
792.0,-0.001894,19.9825,697.6750
793.0,-0.001609,19.9878,697.6851
794.0,-0.000893,19.9928,697.6950
795.0,-0.004391,19.9975,697.7050
796.0,-0.004541,20.0025,697.7150
797.0,-0.003594,20.0078,697.7250
798.0,0.000533,20.0128,697.7350
799.0,-0.001176,20.0175,697.7451
800.0,-0.001092,20.0225,697.7550
801.0,-0.002193,20.0278,697.7650
802.0,-0.002163,20.0328,697.7750
803.0,-0.005053,20.0375,697.7850
804.0,-0.002593,20.0425,697.7950
805.0,-0.001870,20.0478,697.8051
806.0,0.001800,20.0528,697.8151
807.0,-0.001365,20.0575,697.8250
808.0,-0.003257,20.0625,697.8350
809.0,-0.003706,20.0678,697.8450
810.0,0.000528,20.0728,697.8550
811.0,-0.001793,20.0775,697.8651
812.0,-0.001576,20.0825,697.8751
813.0,-0.002371,20.0878,697.8850
814.0,0.000397,20.0928,697.8950
815.0,-0.001665,20.0975,697.9050
816.0,-0.000288,20.1025,697.9150
817.0,-0.002074,20.1078,697.9250
818.0,-0.000208,20.1128,697.9351
819.0,-0.002333,20.1175,697.9450
820.0,-0.002939,20.1225,697.9550
821.0,-0.001433,20.1278,697.9650
822.0,0.000620,20.1328,697.9750
823.0,-0.000886,20.1375,697.9850
824.0,0.000776,20.1425,697.9951
825.0,-0.000601,20.1478,698.0050
826.0,0.000383,20.1528,698.0150
827.0,-0.000961,20.1575,698.0250
828.0,-0.001010,20.1625,698.0350
829.0,-0.001452,20.1678,698.0450
830.0,-0.000168,20.1728,698.0551
831.0,-0.005745,20.1775,698.0651
832.0,-0.003082,20.1825,698.0750
833.0,-0.002974,20.1878,698.0850
834.0,0.000019,20.1928,698.0950
835.0,-0.002859,20.1975,698.1050
836.0,-0.000475,20.2025,698.1151
837.0,-0.000638,20.2078,698.1251
838.0,0.000472,20.2128,698.1350
839.0,-0.004075,20.2175,698.1450
840.0,-0.001321,20.2225,698.1550
841.0,-0.000713,20.2278,698.1650
842.0,0.000800,20.2328,698.1750
843.0,0.000327,20.2375,698.1851
844.0,0.001527,20.2425,698.1950
845.0,-0.000124,20.2478,698.2050
846.0,0.002813,20.2528,698.2150
847.0,-0.001875,20.2575,698.2250
848.0,-0.001772,20.2625,698.2350
849.0,-0.000734,20.2678,698.2451
850.0,0.000540,20.2728,698.2550
851.0,-0.001153,20.2775,698.2650
852.0,-0.001543,20.2825,698.2750
853.0,-0.005876,20.2878,698.2850
854.0,-0.001274,20.2928,698.2950
855.0,-0.000715,20.2975,698.3051
856.0,0.001190,20.3025,698.3151
857.0,-0.000966,20.3078,698.3250
858.0,0.000037,20.3128,698.3350
859.0,-0.000991,20.3175,698.3450
860.0,0.001884,20.3225,698.3550
861.0,0.000956,20.3278,698.3651
862.0,0.003163,20.3328,698.3751
863.0,0.002083,20.3375,698.3850
864.0,0.002593,20.3425,698.3950
865.0,0.000168,20.3478,698.4050
866.0,-0.001861,20.3528,698.4150
867.0,-0.002097,20.3575,698.4250
868.0,0.000893,20.3625,698.4351
869.0,-0.000627,20.3678,698.4450
870.0,0.000185,20.3728,698.4550
871.0,-0.003220,20.3775,698.4650
872.0,-0.002530,20.3825,698.4750
873.0,-0.002072,20.3878,698.4850
874.0,0.000851,20.3928,698.4951
875.0,-0.001513,20.3975,698.5050
876.0,-0.001015,20.4025,698.5150
877.0,-0.000870,20.4078,698.5250
878.0,-0.000786,20.4128,698.5350
879.0,-0.001618,20.4175,698.5450
880.0,0.001019,20.4225,698.5551
881.0,-0.002485,20.4278,698.5651
882.0,-0.001457,20.4328,698.5750
883.0,-0.002181,20.4375,698.5850
884.0,0.001443,20.4425,698.5950
885.0,-0.000571,20.4478,698.6050
886.0,0.000404,20.4528,698.6151
887.0,-0.001092,20.4575,698.6251
888.0,-0.000786,20.4625,698.6350
889.0,-0.000973,20.4678,698.6450
890.0,-0.000856,20.4728,698.6550
891.0,0.001768,20.4775,698.6650
892.0,0.003273,20.4825,698.6750
893.0,-0.000166,20.4878,698.6851
894.0,0.002855,20.4928,698.6950
895.0,0.002824,20.4975,698.7050
896.0,0.001206,20.5025,698.7150
897.0,-0.000921,20.5078,698.7250
898.0,0.000178,20.5128,698.7350
899.0,-0.001641,20.5178,698.7451
900.0,-0.000659,20.5228,698.7550
901.0,-0.000505,20.5278,698.7650
902.0,0.000264,20.5328,698.7750
903.0,-0.000023,20.5378,698.7850
904.0,0.001583,20.5428,698.7950
905.0,0.002794,20.5478,698.8051
906.0,0.002263,20.5528,698.8151
907.0,-0.002095,20.5578,698.8250
908.0,0.000262,20.5628,698.8350
909.0,0.000538,20.5678,698.8450
910.0,0.001015,20.5728,698.8550
911.0,0.000295,20.5778,698.8651
912.0,0.001391,20.5828,698.8751
913.0,-0.000182,20.5878,698.8850
914.0,0.000713,20.5928,698.8950
915.0,0.000867,20.5978,698.9050
916.0,0.000758,20.6028,698.9150
917.0,-0.000514,20.6078,698.9250
918.0,0.001197,20.6128,698.9351
919.0,0.000449,20.6178,698.9450
920.0,0.000701,20.6228,698.9550
921.0,0.000433,20.6278,698.9650
922.0,0.001728,20.6328,698.9750
923.0,-0.000161,20.6378,698.9850
924.0,0.000945,20.6428,698.9951
925.0,0.000765,20.6478,699.0050
926.0,-0.000484,20.6528,699.0150
927.0,0.000701,20.6578,699.0250
928.0,0.002013,20.6628,699.0350
929.0,0.000194,20.6678,699.0450
930.0,0.001101,20.6728,699.0551
931.0,0.002100,20.6778,699.0651
932.0,0.002539,20.6828,699.0750
933.0,0.000547,20.6878,699.0850
934.0,-0.000002,20.6928,699.0950
935.0,-0.001520,20.6978,699.1050
936.0,0.001164,20.7028,699.1151
937.0,0.001777,20.7078,699.1251
938.0,0.002088,20.7128,699.1350
939.0,0.001583,20.7178,699.1450
940.0,0.002754,20.7228,699.1550
941.0,-0.001129,20.7278,699.1650
942.0,-0.000136,20.7328,699.1750
943.0,0.000416,20.7378,699.1851
944.0,-0.000124,20.7428,699.1950
945.0,-0.000087,20.7478,699.2050
946.0,0.001080,20.7528,699.2150
947.0,0.001026,20.7578,699.2250
948.0,0.000512,20.7628,699.2350
949.0,0.002146,20.7678,699.2451
950.0,0.004400,20.7728,699.2550
951.0,0.002836,20.7778,699.2650
952.0,0.002993,20.7806,699.2750
953.0,0.003961,20.7850,699.2850
954.0,0.005167,20.7928,699.2950
955.0,0.003608,20.7978,699.3051
956.0,0.003559,20.8028,699.3151
957.0,0.003079,20.8078,699.3250
958.0,0.003093,20.8128,699.3350
959.0,0.002214,20.8175,699.3450
960.0,0.000182,20.8225,699.3550
961.0,-0.003058,20.8278,699.3651
962.0,-0.001679,20.8306,699.3751
963.0,-0.000566,20.8350,699.3850
964.0,0.001627,20.8425,699.3950
965.0,-0.000823,20.8478,699.4050
966.0,0.000182,20.8528,699.4150
967.0,0.000498,20.8575,699.4250
968.0,0.000320,20.8625,699.4351
969.0,0.000124,20.8678,699.4450
970.0,0.000863,20.8728,699.4550
971.0,0.001104,20.8750,699.4650
972.0,0.001559,20.8800,699.4750
973.0,0.001050,20.8850,699.4850
974.0,0.002523,20.8928,699.4951
975.0,0.001817,20.8975,699.5050
976.0,-0.001122,20.9025,699.5150
977.0,-0.001204,20.9078,699.5250
978.0,-0.000362,20.9128,699.5350
979.0,-0.003589,20.9175,699.5450
980.0,-0.005502,20.9225,699.5551
981.0,-0.004101,20.9250,699.5651
982.0,-0.000977,20.9306,699.5750
983.0,-0.000012,20.9350,699.5850
984.0,0.000365,20.9400,699.5950
985.0,0.000816,20.9478,699.6050
986.0,0.000507,20.9528,699.6151
987.0,-0.000977,20.9575,699.6251
988.0,-0.000538,20.9625,699.6350
989.0,0.000320,20.9678,699.6450
990.0,0.001410,20.9706,699.6550
991.0,0.001697,20.9750,699.6650
992.0,0.002462,20.9800,699.6750
993.0,0.002205,20.9850,699.6851
994.0,0.003014,20.9906,699.6950
995.0,0.001737,20.9975,699.7050
996.0,0.003271,21.0025,699.7150
997.0,0.001482,21.0075,699.7250
998.0,0.001094,21.0125,699.7350
999.0,0.001249,21.0175,699.7451
1000.0,0.001431,21.0200,699.7550
