Point No.,Normal Force [N],Gap [mm],Time [s]
1.0,0.003282,27.0534,1932
2.0,-0.000971,27.0581,1932
3.0,-0.002743,27.0539,1932
4.0,-0.005976,27.0485,1932
5.0,-0.006396,27.0435,1932
6.0,-0.006205,27.0387,1932
7.0,-0.006215,27.0336,1932
8.0,-0.005313,27.0285,1932
9.0,-0.006960,27.0235,1932
10.0,-0.007430,27.0187,1932
11.0,-0.006183,27.0136,1932
12.0,-0.004018,27.0082,1932
13.0,-0.005736,27.0032,1932
14.0,-0.004631,26.9987,1932
15.0,-0.005496,26.9934,1932
16.0,-0.006754,26.9882,1932
17.0,-0.004313,26.9832,1932
18.0,-0.004326,26.9784,1932
19.0,-0.005341,26.9734,1933
20.0,-0.004208,26.9682,1933
21.0,-0.004962,26.9633,1933
22.0,-0.004425,26.9584,1933
23.0,-0.007748,26.9535,1933
24.0,-0.004562,26.9484,1933
25.0,-0.005774,26.9435,1933
26.0,-0.005608,26.9384,1933
27.0,-0.004935,26.9333,1933
28.0,-0.004783,26.9284,1933
29.0,-0.007344,26.9234,1933
30.0,-0.004989,26.9184,1933
31.0,-0.006393,26.9134,1933
32.0,-0.003177,26.9083,1933
33.0,-0.004652,26.9032,1933
34.0,-0.004934,26.8985,1933
35.0,-0.003652,26.8932,1933
36.0,-0.004238,26.8883,1933
37.0,-0.005663,26.8833,1933
38.0,-0.005551,26.8785,1933
39.0,-0.005973,26.8733,1934
40.0,-0.004175,26.8683,1934
41.0,-0.005162,26.8633,1934
42.0,-0.005394,26.8585,1934
43.0,-0.004468,26.8535,1934
44.0,-0.003930,26.8483,1934
45.0,-0.004150,26.8430,1934
46.0,-0.005259,26.8385,1934
47.0,-0.004930,26.8329,1934
48.0,-0.006934,26.8282,1934
49.0,-0.005281,26.8229,1934
50.0,-0.008285,26.8182,1934
51.0,-0.007591,26.8129,1934
52.0,-0.008476,26.8082,1934
53.0,-0.006396,26.8029,1934
54.0,-0.006722,26.7982,1934
55.0,-0.007331,26.7929,1934
56.0,-0.005853,26.7882,1934
57.0,-0.006743,26.7829,1934
58.0,-0.005195,26.7782,1934
59.0,-0.007280,26.7728,1935
60.0,-0.005815,26.7677,1935
61.0,-0.005221,26.7627,1935
62.0,-0.006985,26.7582,1935
63.0,-0.006573,26.7526,1935
64.0,-0.004234,26.7477,1935
65.0,-0.004409,26.7428,1935
66.0,-0.003782,26.7377,1935
67.0,-0.005200,26.7328,1935
68.0,-0.003737,26.7277,1935
69.0,-0.005337,26.7228,1935
70.0,-0.003284,26.7177,1935
71.0,-0.003167,26.7125,1935
72.0,-0.003541,26.7078,1935
73.0,-0.004113,26.7025,1935
74.0,-0.002958,26.6979,1935
75.0,-0.004096,26.6926,1935
76.0,-0.003939,26.6875,1935
77.0,-0.005368,26.6825,1935
78.0,-0.003763,26.6778,1935
79.0,-0.003631,26.6725,1936
80.0,-0.005595,26.6678,1936
81.0,-0.005912,26.6625,1936
82.0,-0.005463,26.6578,1936
83.0,-0.007311,26.6525,1936
84.0,-0.006572,26.6478,1936
85.0,-0.007840,26.6422,1936
86.0,-0.005625,26.6378,1936
87.0,-0.007941,26.6322,1936
88.0,-0.007484,26.6275,1936
89.0,-0.006043,26.6222,1936
90.0,-0.007361,26.6178,1936
91.0,-0.007972,26.6122,1936
92.0,-0.007527,26.6072,1936
93.0,-0.007973,26.6022,1936
94.0,-0.007179,26.5975,1936
95.0,-0.007758,26.5922,1936
96.0,-0.004174,26.5872,1936
97.0,-0.004860,26.5820,1936
98.0,-0.006043,26.5770,1936
99.0,-0.006707,26.5718,1937
100.0,-0.005735,26.5670,1937
101.0,-0.006986,26.5618,1937
102.0,-0.005825,26.5570,1937
103.0,-0.004761,26.5517,1937
104.0,-0.006643,26.5468,1937
105.0,-0.005534,26.5417,1937
106.0,-0.006577,26.5370,1937
107.0,-0.006925,26.5317,1937
108.0,-0.007176,26.5268,1937
109.0,-0.005410,26.5217,1937
110.0,-0.005397,26.5170,1937
111.0,-0.004753,26.5116,1937
112.0,-0.005897,26.5066,1937
113.0,-0.005933,26.5015,1937
114.0,-0.006254,26.4970,1937
115.0,-0.006294,26.4915,1937
116.0,-0.004722,26.4866,1937
117.0,-0.002444,26.4816,1937
118.0,-0.005958,26.4769,1937
119.0,-0.004977,26.4716,1938
120.0,-0.004666,26.4666,1938
121.0,-0.005943,26.4616,1938
122.0,-0.004649,26.4566,1938
123.0,-0.002977,26.4516,1938
124.0,-0.003504,26.4466,1938
125.0,-0.003859,26.4415,1938
126.0,-0.004051,26.4366,1938
127.0,-0.004049,26.4313,1938
128.0,-0.003654,26.4265,1938
129.0,-0.004686,26.4215,1938
130.0,-0.004686,26.4166,1938
131.0,-0.004596,26.4112,1938
132.0,-0.005291,26.4065,1938
133.0,-0.003677,26.4013,1938
134.0,-0.004496,26.3965,1938
135.0,-0.003137,26.3912,1938
136.0,-0.005242,26.3865,1938
137.0,-0.006786,26.3812,1938
138.0,-0.006098,26.3765,1938
139.0,-0.005445,26.3712,1939
140.0,-0.005093,26.3665,1939
141.0,-0.007457,26.3612,1939
142.0,-0.003803,26.3565,1939
143.0,-0.006186,26.3509,1939
144.0,-0.005879,26.3462,1939
145.0,-0.006966,26.3412,1939
146.0,-0.007411,26.3362,1939
147.0,-0.007988,26.3310,1939
148.0,-0.005576,26.3259,1939
149.0,-0.004590,26.3211,1939
150.0,-0.006710,26.3159,1939
151.0,-0.005345,26.3111,1939
152.0,-0.005861,26.3059,1939
153.0,-0.005576,26.3012,1939
154.0,-0.004788,26.2959,1939
155.0,-0.004216,26.2909,1939
156.0,-0.001797,26.2859,1939
157.0,-0.002572,26.2808,1939
158.0,-0.001586,26.2765,1939
159.0,-0.003266,26.2708,1940
160.0,-0.002961,26.2658,1940
161.0,-0.001249,26.2608,1940
162.0,-0.002875,26.2563,1940
163.0,-0.004507,26.2508,1940
164.0,-0.001406,26.2458,1940
165.0,-0.000825,26.2408,1940
166.0,-0.002658,26.2361,1940
167.0,-0.002801,26.2308,1940
168.0,-0.002707,26.2261,1940
169.0,-0.002723,26.2208,1940
170.0,-0.002404,26.2161,1940
171.0,-0.004958,26.2108,1940
172.0,-0.003767,26.2061,1940
173.0,-0.004597,26.2011,1940
174.0,-0.003236,26.1962,1940
175.0,-0.005106,26.1908,1940
176.0,-0.006277,26.1858,1940
177.0,-0.005034,26.1808,1940
178.0,-0.004627,26.1759,1940
179.0,-0.006606,26.1708,1941
180.0,-0.003965,26.1658,1941
181.0,-0.006361,26.1608,1941
182.0,-0.005596,26.1558,1941
183.0,-0.005194,26.1506,1941
184.0,-0.007185,26.1458,1941
185.0,-0.006455,26.1406,1941
186.0,-0.006019,26.1358,1941
187.0,-0.004888,26.1306,1941
188.0,-0.005227,26.1256,1941
189.0,-0.005668,26.1206,1941
190.0,-0.006273,26.1156,1941
191.0,-0.005731,26.1102,1941
192.0,-0.004862,26.1056,1941
193.0,-0.003848,26.1002,1941
194.0,-0.004492,26.0956,1941
195.0,-0.003356,26.0902,1941
196.0,-0.003095,26.0854,1941
197.0,-0.003433,26.0802,1941
198.0,-0.005179,26.0755,1941
199.0,-0.002686,26.0703,1942
200.0,-0.002852,26.0655,1942
201.0,-0.003365,26.0604,1942
202.0,-0.004175,26.0555,1942
203.0,-0.003716,26.0504,1942
204.0,-0.002858,26.0455,1942
205.0,-0.003155,26.0405,1942
206.0,-0.004232,26.0355,1942
207.0,-0.004856,26.0303,1942
208.0,-0.004691,26.0255,1942
209.0,-0.004327,26.0205,1942
210.0,-0.005280,26.0155,1942
211.0,-0.005422,26.0099,1942
212.0,-0.004214,26.0053,1942
213.0,-0.006060,26.0004,1942
214.0,-0.006500,25.9955,1942
215.0,-0.005988,25.9902,1942
216.0,-0.006819,25.9852,1942
217.0,-0.008020,25.9802,1942
218.0,-0.008257,25.9752,1942
219.0,-0.006533,25.9702,1943
220.0,-0.006539,25.9652,1943
221.0,-0.006889,25.9602,1943
222.0,-0.007128,25.9552,1943
223.0,-0.008712,25.9499,1943
224.0,-0.007238,25.9452,1943
225.0,-0.006711,25.9401,1943
226.0,-0.007228,25.9351,1943
227.0,-0.005958,25.9299,1943
228.0,-0.005802,25.9249,1943
229.0,-0.004576,25.9201,1943
230.0,-0.005162,25.9151,1943
231.0,-0.004525,25.9096,1943
232.0,-0.002914,25.9049,1943
233.0,-0.003489,25.8999,1943
234.0,-0.003944,25.8949,1943
235.0,-0.003552,25.8896,1943
236.0,-0.002042,25.8849,1943
237.0,-0.003471,25.8799,1943
238.0,-0.002207,25.8749,1943
239.0,-0.005053,25.8696,1944
240.0,-0.003077,25.8649,1944
241.0,-0.004883,25.8599,1944
242.0,-0.001899,25.8550,1944
243.0,-0.004773,25.8495,1944
244.0,-0.003201,25.8447,1944
245.0,-0.006361,25.8399,1944
246.0,-0.004762,25.8347,1944
247.0,-0.004017,25.8295,1944
248.0,-0.006736,25.8247,1944
249.0,-0.006684,25.8199,1944
250.0,-0.005923,25.8145,1944
251.0,-0.004997,25.8095,1944
252.0,-0.006339,25.8045,1944
253.0,-0.004573,25.7996,1944
254.0,-0.005849,25.7945,1944
255.0,-0.006956,25.7895,1944
256.0,-0.006082,25.7845,1944
257.0,-0.005750,25.7795,1944
258.0,-0.005269,25.7745,1944
259.0,-0.007110,25.7692,1945
260.0,-0.007368,25.7642,1945
261.0,-0.007453,25.7595,1945
262.0,-0.007468,25.7542,1945
263.0,-0.006218,25.7490,1945
264.0,-0.006414,25.7442,1945
265.0,-0.005375,25.7392,1945
266.0,-0.006630,25.7342,1945
267.0,-0.006982,25.7290,1945
268.0,-0.005354,25.7242,1945
269.0,-0.004248,25.7193,1945
270.0,-0.004869,25.7141,1945
271.0,-0.004653,25.7089,1945
272.0,-0.003208,25.7039,1945
273.0,-0.004073,25.6993,1945
274.0,-0.005272,25.6938,1945
275.0,-0.005719,25.6886,1945
276.0,-0.004209,25.6839,1945
277.0,-0.003502,25.6788,1945
278.0,-0.004160,25.6739,1945
279.0,-0.005375,25.6686,1946
280.0,-0.003863,25.6636,1946
281.0,-0.003579,25.6588,1946
282.0,-0.002639,25.6539,1946
283.0,-0.004549,25.6486,1946
284.0,-0.005073,25.6438,1946
285.0,-0.003881,25.6389,1946
286.0,-0.004929,25.6335,1946
287.0,-0.005375,25.6285,1946
288.0,-0.005779,25.6235,1946
289.0,-0.005858,25.6185,1946
290.0,-0.005714,25.6135,1946
291.0,-0.007681,25.6085,1946
292.0,-0.005785,25.6035,1946
293.0,-0.004585,25.5985,1946
294.0,-0.006421,25.5935,1946
295.0,-0.005695,25.5885,1946
296.0,-0.005689,25.5834,1946
297.0,-0.008011,25.5785,1946
298.0,-0.006333,25.5734,1946
299.0,-0.007707,25.5684,1947
300.0,-0.005396,25.5634,1947
301.0,-0.008036,25.5585,1947
302.0,-0.006333,25.5534,1947
303.0,-0.004698,25.5482,1947
304.0,-0.005938,25.5432,1947
305.0,-0.006013,25.5383,1947
306.0,-0.005198,25.5332,1947
307.0,-0.005677,25.5282,1947
308.0,-0.004597,25.5232,1947
309.0,-0.004447,25.5183,1947
310.0,-0.004717,25.5129,1947
311.0,-0.005578,25.5079,1947
312.0,-0.003461,25.5029,1947
313.0,-0.004315,25.4983,1947
314.0,-0.004028,25.4929,1947
315.0,-0.006533,25.4879,1947
316.0,-0.005783,25.4829,1947
317.0,-0.005399,25.4779,1947
318.0,-0.004963,25.4729,1947
319.0,-0.004581,25.4679,1948
320.0,-0.007608,25.4629,1948
321.0,-0.006490,25.4579,1948
322.0,-0.007155,25.4529,1948
323.0,-0.006138,25.4479,1948
324.0,-0.004902,25.4428,1948
325.0,-0.006624,25.4379,1948
326.0,-0.006763,25.4331,1948
327.0,-0.006584,25.4278,1948
328.0,-0.006153,25.4228,1948
329.0,-0.007247,25.4181,1948
330.0,-0.006053,25.4128,1948
331.0,-0.008043,25.4078,1948
332.0,-0.006816,25.4028,1948
333.0,-0.007635,25.3978,1948
334.0,-0.005206,25.3928,1948
335.0,-0.005928,25.3878,1948
336.0,-0.008211,25.3828,1948
337.0,-0.005528,25.3779,1948
338.0,-0.007066,25.3725,1948
339.0,-0.009445,25.3675,1949
340.0,-0.007915,25.3625,1949
341.0,-0.004627,25.3579,1949
342.0,-0.004727,25.3523,1949
343.0,-0.006383,25.3475,1949
344.0,-0.004943,25.3426,1949
345.0,-0.004918,25.3376,1949
346.0,-0.004260,25.3322,1949
347.0,-0.003347,25.3275,1949
348.0,-0.003410,25.3225,1949
349.0,-0.001655,25.3175,1949
350.0,-0.003182,25.3122,1949
351.0,-0.003830,25.3075,1949
352.0,-0.005573,25.3022,1949
353.0,-0.004973,25.2975,1949
354.0,-0.005434,25.2922,1949
355.0,-0.003790,25.2872,1949
356.0,-0.005931,25.2822,1949
357.0,-0.006107,25.2775,1949
358.0,-0.006172,25.2722,1949
359.0,-0.006097,25.2672,1950
360.0,-0.006308,25.2622,1950
361.0,-0.007274,25.2575,1950
362.0,-0.008755,25.2522,1950
363.0,-0.006039,25.2472,1950
364.0,-0.008927,25.2422,1950
365.0,-0.006983,25.2372,1950
366.0,-0.007481,25.2323,1950
367.0,-0.003569,25.2272,1950
368.0,-0.008210,25.2224,1950
369.0,-0.008176,25.2174,1950
370.0,-0.008893,25.2122,1950
371.0,-0.007102,25.2073,1950
372.0,-0.007828,25.2022,1950
373.0,-0.007788,25.1974,1950
374.0,-0.005878,25.1924,1950
375.0,-0.005783,25.1872,1950
376.0,-0.005375,25.1822,1950
377.0,-0.005399,25.1776,1950
378.0,-0.007134,25.1722,1950
379.0,-0.006197,25.1672,1951
380.0,-0.006559,25.1622,1951
381.0,-0.006219,25.1574,1951
382.0,-0.008430,25.1522,1951
383.0,-0.007503,25.1472,1951
384.0,-0.007379,25.1422,1951
385.0,-0.006525,25.1374,1951
386.0,-0.006300,25.1320,1951
387.0,-0.005776,25.1274,1951
388.0,-0.006190,25.1220,1951
389.0,-0.005941,25.1174,1951
390.0,-0.005203,25.1120,1951
391.0,-0.005733,25.1072,1951
392.0,-0.005442,25.1020,1951
393.0,-0.003595,25.0974,1951
394.0,-0.005560,25.0920,1951
395.0,-0.005901,25.0870,1951
396.0,-0.004756,25.0820,1951
397.0,-0.005897,25.0772,1951
398.0,-0.006697,25.0720,1951
399.0,-0.004768,25.0670,1952
400.0,-0.007185,25.0620,1952
401.0,-0.006517,25.0572,1952
402.0,-0.006868,25.0520,1952
403.0,-0.005413,25.0472,1952
404.0,-0.007262,25.0420,1952
405.0,-0.005492,25.0372,1952
406.0,-0.006080,25.0318,1952
407.0,-0.005623,25.0271,1952
408.0,-0.007222,25.0218,1952
409.0,-0.006651,25.0172,1952
410.0,-0.006124,25.0119,1952
411.0,-0.005442,25.0069,1952
412.0,-0.006549,25.0019,1952
413.0,-0.006830,24.9971,1952
414.0,-0.004963,24.9919,1952
415.0,-0.006273,24.9869,1952
416.0,-0.005290,24.9819,1952
417.0,-0.006443,24.9771,1952
418.0,-0.003031,24.9719,1952
419.0,-0.004941,24.9671,1953
420.0,-0.005950,24.9619,1953
421.0,-0.005272,24.9571,1953
422.0,-0.004128,24.9519,1953
423.0,-0.005629,24.9471,1953
424.0,-0.004828,24.9419,1953
425.0,-0.004532,24.9371,1953
426.0,-0.003940,24.9318,1953
427.0,-0.002886,24.9268,1953
428.0,-0.003603,24.9218,1953
429.0,-0.004956,24.9168,1953
430.0,-0.003213,24.9118,1953
431.0,-0.003603,24.9068,1953
432.0,-0.002773,24.9018,1953
433.0,-0.005118,24.8968,1953
434.0,-0.004035,24.8918,1953
435.0,-0.005601,24.8868,1953
436.0,-0.005102,24.8818,1953
437.0,-0.005586,24.8768,1953
438.0,-0.004996,24.8716,1953
439.0,-0.005450,24.8668,1954
440.0,-0.006435,24.8618,1954
441.0,-0.007277,24.8568,1954
442.0,-0.008041,24.8513,1954
443.0,-0.007192,24.8465,1954
444.0,-0.008780,24.8415,1954
445.0,-0.007686,24.8368,1954
446.0,-0.007330,24.8313,1954
447.0,-0.007440,24.8265,1954
448.0,-0.008127,24.8215,1954
449.0,-0.006801,24.8165,1954
450.0,-0.008410,24.8113,1954
451.0,-0.006564,24.8065,1954
452.0,-0.007992,24.8016,1954
453.0,-0.005952,24.7967,1954
454.0,-0.007240,24.7913,1954
455.0,-0.006118,24.7866,1954
456.0,-0.007179,24.7813,1954
457.0,-0.005817,24.7766,1954
458.0,-0.006959,24.7712,1954
459.0,-0.007028,24.7663,1955
460.0,-0.004698,24.7613,1955
461.0,-0.004360,24.7563,1955
462.0,-0.006238,24.7512,1955
463.0,-0.003907,24.7462,1955
464.0,-0.002753,24.7412,1955
465.0,-0.004266,24.7363,1955
466.0,-0.005379,24.7312,1955
467.0,-0.003298,24.7262,1955
468.0,-0.005781,24.7212,1955
469.0,-0.004128,24.7163,1955
470.0,-0.004965,24.7107,1955
471.0,-0.005256,24.7059,1955
472.0,-0.003670,24.7009,1955
473.0,-0.002925,24.6960,1955
474.0,-0.005553,24.6907,1955
475.0,-0.004956,24.6859,1955
476.0,-0.005811,24.6809,1955
477.0,-0.004037,24.6759,1955
478.0,-0.007953,24.6707,1955
479.0,-0.006745,24.6659,1956
480.0,-0.007847,24.6609,1956
481.0,-0.007524,24.6559,1956
482.0,-0.007697,24.6504,1956
483.0,-0.007784,24.6459,1956
484.0,-0.008853,24.6407,1956
485.0,-0.006217,24.6359,1956
486.0,-0.007805,24.6303,1956
487.0,-0.008605,24.6256,1956
488.0,-0.008734,24.6206,1956
489.0,-0.007380,24.6156,1956
490.0,-0.007886,24.6104,1956
491.0,-0.007486,24.6056,1956
492.0,-0.007233,24.6006,1956
493.0,-0.005903,24.5956,1956
494.0,-0.005506,24.5905,1956
495.0,-0.007346,24.5855,1956
496.0,-0.006348,24.5806,1956
497.0,-0.006900,24.5759,1956
498.0,-0.007398,24.5706,1956
499.0,-0.004106,24.5656,1957
500.0,-0.005831,24.5606,1957
501.0,-0.004879,24.5556,1957
502.0,-0.004365,24.5503,1957
503.0,-0.004746,24.5456,1957
504.0,-0.005730,24.5403,1957
505.0,-0.005809,24.5356,1957
506.0,-0.004807,24.5303,1957
507.0,-0.005560,24.5253,1957
508.0,-0.004968,24.5203,1957
509.0,-0.006542,24.5153,1957
510.0,-0.005811,24.5102,1957
511.0,-0.006389,24.5049,1957
512.0,-0.006037,24.5000,1957
513.0,-0.007645,24.4953,1957
514.0,-0.008248,24.4899,1957
515.0,-0.006803,24.4849,1957
516.0,-0.008963,24.4799,1957
517.0,-0.009718,24.4750,1957
518.0,-0.010318,24.4699,1957
519.0,-0.007996,24.4649,1958
520.0,-0.008890,24.4599,1958
521.0,-0.009253,24.4550,1958
522.0,-0.010427,24.4497,1958
523.0,-0.009448,24.4449,1958
524.0,-0.009688,24.4397,1958
525.0,-0.006003,24.4350,1958
526.0,-0.006347,24.4294,1958
527.0,-0.008032,24.4244,1958
528.0,-0.007785,24.4194,1958
529.0,-0.007609,24.4147,1958
530.0,-0.007455,24.4094,1958
531.0,-0.007953,24.4044,1958
532.0,-0.007819,24.3994,1958
533.0,-0.006360,24.3946,1958
534.0,-0.005532,24.3894,1958
535.0,-0.004348,24.3844,1958
536.0,-0.005366,24.3796,1958
537.0,-0.005559,24.3749,1958
538.0,-0.006046,24.3696,1958
539.0,-0.005168,24.3647,1959
540.0,-0.004378,24.3596,1959
541.0,-0.003259,24.3547,1959
542.0,-0.005014,24.3496,1959
543.0,-0.004611,24.3447,1959
544.0,-0.005381,24.3396,1959
545.0,-0.004535,24.3347,1959
546.0,-0.005718,24.3293,1959
547.0,-0.005354,24.3247,1959
548.0,-0.005927,24.3193,1959
549.0,-0.006496,24.3147,1959
550.0,-0.007699,24.3093,1959
551.0,-0.005820,24.3044,1959
552.0,-0.007697,24.2994,1959
553.0,-0.008227,24.2944,1959
554.0,-0.008765,24.2891,1959
555.0,-0.007923,24.2842,1959
556.0,-0.007753,24.2794,1959
557.0,-0.007243,24.2742,1959
558.0,-0.010218,24.2691,1959
559.0,-0.008501,24.2641,1960
560.0,-0.007709,24.2591,1960
561.0,-0.008867,24.2541,1960
562.0,-0.011207,24.2491,1960
563.0,-0.008573,24.2441,1960
564.0,-0.008859,24.2391,1960
565.0,-0.007486,24.2341,1960
566.0,-0.007790,24.2289,1960
567.0,-0.008843,24.2241,1960
568.0,-0.006968,24.2190,1960
569.0,-0.007521,24.2141,1960
570.0,-0.007932,24.2090,1960
571.0,-0.006309,24.2041,1960
572.0,-0.006603,24.1990,1960
573.0,-0.006416,24.1941,1960
574.0,-0.007731,24.1887,1960
575.0,-0.005859,24.1838,1960
576.0,-0.007151,24.1788,1960
577.0,-0.006254,24.1738,1960
578.0,-0.005658,24.1688,1960
579.0,-0.004674,24.1640,1961
580.0,-0.005490,24.1590,1961
581.0,-0.005752,24.1540,1961
582.0,-0.007144,24.1489,1961
583.0,-0.006636,24.1438,1961
584.0,-0.006005,24.1390,1961
585.0,-0.006632,24.1338,1961
586.0,-0.007144,24.1286,1961
587.0,-0.006510,24.1236,1961
588.0,-0.006795,24.1189,1961
589.0,-0.007120,24.1138,1961
590.0,-0.008220,24.1086,1961
591.0,-0.007300,24.1036,1961
592.0,-0.006810,24.0989,1961
593.0,-0.008805,24.0936,1961
594.0,-0.007551,24.0885,1961
595.0,-0.008201,24.0835,1961
596.0,-0.008459,24.0787,1961
597.0,-0.009330,24.0736,1961
598.0,-0.007738,24.0685,1961
599.0,-0.009129,24.0635,1962
600.0,-0.008076,24.0587,1962
601.0,-0.008959,24.0536,1962
602.0,-0.008362,24.0485,1962
603.0,-0.007948,24.0435,1962
604.0,-0.007342,24.0387,1962
605.0,-0.008301,24.0336,1962
606.0,-0.006952,24.0282,1962
607.0,-0.010457,24.0232,1962
608.0,-0.009571,24.0186,1962
609.0,-0.007809,24.0134,1962
610.0,-0.008361,24.0082,1962
611.0,-0.008580,24.0034,1962
612.0,-0.007895,23.9985,1962
613.0,-0.006803,23.9934,1962
614.0,-0.007326,23.9883,1962
615.0,-0.007667,23.9832,1962
616.0,-0.007676,23.9785,1962
617.0,-0.007548,23.9732,1962
618.0,-0.007039,23.9682,1962
619.0,-0.010051,23.9632,1963
620.0,-0.007937,23.9586,1963
621.0,-0.008969,23.9534,1963
622.0,-0.009277,23.9484,1963
623.0,-0.008159,23.9434,1963
624.0,-0.009382,23.9386,1963
625.0,-0.008576,23.9334,1963
626.0,-0.007735,23.9282,1963
627.0,-0.011172,23.9234,1963
628.0,-0.010078,23.9184,1963
629.0,-0.008758,23.9134,1963
630.0,-0.008825,23.9082,1963
631.0,-0.008591,23.9034,1963
632.0,-0.010245,23.8984,1963
633.0,-0.010368,23.8934,1963
634.0,-0.010548,23.8882,1963
635.0,-0.010692,23.8834,1963
636.0,-0.009657,23.8784,1963
637.0,-0.009354,23.8732,1963
638.0,-0.007658,23.8680,1963
639.0,-0.008199,23.8632,1964
640.0,-0.008293,23.8584,1964
641.0,-0.010924,23.8530,1964
642.0,-0.008493,23.8480,1964
643.0,-0.007330,23.8430,1964
644.0,-0.007307,23.8380,1964
645.0,-0.006963,23.8330,1964
646.0,-0.007205,23.8280,1964
647.0,-0.008080,23.8230,1964
648.0,-0.006658,23.8180,1964
649.0,-0.006575,23.8128,1964
650.0,-0.005637,23.8080,1964
651.0,-0.005729,23.8028,1964
652.0,-0.006306,23.7980,1964
653.0,-0.007748,23.7925,1964
654.0,-0.006482,23.7875,1964
655.0,-0.005864,23.7826,1964
656.0,-0.005664,23.7778,1964
657.0,-0.007155,23.7725,1964
658.0,-0.005273,23.7676,1964
659.0,-0.005303,23.7626,1965
660.0,-0.005111,23.7578,1965
661.0,-0.005614,23.7525,1965
662.0,-0.004178,23.7476,1965
663.0,-0.005115,23.7427,1965
664.0,-0.007016,23.7379,1965
665.0,-0.002873,23.7325,1965
666.0,-0.005551,23.7277,1965
667.0,-0.002805,23.7225,1965
668.0,-0.003601,23.7179,1965
669.0,-0.003299,23.7126,1965
670.0,-0.002026,23.7075,1965
671.0,0.000104,23.7026,1965
672.0,0.000699,23.6976,1965
673.0,-0.000870,23.6923,1965
674.0,0.001139,23.6876,1965
675.0,0.002593,23.6826,1965
676.0,0.004398,23.6776,1965
677.0,0.002955,23.6723,1965
678.0,0.005503,23.6676,1965
679.0,0.005595,23.6620,1966
680.0,0.006959,23.6576,1966
681.0,0.008258,23.6520,1966
682.0,0.011118,23.6470,1966
683.0,0.013272,23.6420,1966
684.0,0.013698,23.6373,1966
685.0,0.013665,23.6320,1966
686.0,0.015148,23.6270,1966
687.0,0.015174,23.6220,1966
688.0,0.017676,23.6173,1966
689.0,0.017564,23.6120,1966
690.0,0.020682,23.6070,1966
691.0,0.020753,23.6020,1966
692.0,0.023856,23.5973,1966
693.0,0.025980,23.5917,1966
694.0,0.025478,23.5870,1966
695.0,0.026228,23.5817,1966
696.0,0.028698,23.5773,1966
697.0,0.028198,23.5717,1966
698.0,0.030804,23.5669,1966
699.0,0.034207,23.5617,1967
700.0,0.035655,23.5570,1967
701.0,0.038416,23.5517,1967
702.0,0.039408,23.5469,1967
703.0,0.041511,23.5417,1967
704.0,0.041495,23.5370,1967
705.0,0.044807,23.5315,1967
706.0,0.047531,23.5269,1967
707.0,0.049384,23.5216,1967
708.0,0.052441,23.5172,1967
709.0,0.055574,23.5116,1967
710.0,0.055919,23.5066,1967
711.0,0.058676,23.5017,1967
712.0,0.060781,23.4972,1967
713.0,0.064425,23.4916,1967
714.0,0.066925,23.4867,1967
715.0,0.068700,23.4817,1967
716.0,0.069801,23.4769,1967
717.0,0.074243,23.4716,1967
718.0,0.075781,23.4667,1967
719.0,0.077744,23.4616,1968
720.0,0.079055,23.4569,1968
721.0,0.082412,23.4516,1968
722.0,0.086413,23.4466,1968
723.0,0.089241,23.4416,1968
724.0,0.089737,23.4368,1968
725.0,0.094213,23.4316,1968
726.0,0.096388,23.4266,1968
727.0,0.099420,23.4216,1968
728.0,0.102174,23.4166,1968
729.0,0.106121,23.4115,1968
730.0,0.108834,23.4065,1968
731.0,0.111187,23.4015,1968
732.0,0.114373,23.3966,1968
733.0,0.117986,23.3910,1968
734.0,0.121388,23.3865,1968
735.0,0.123402,23.3813,1968
736.0,0.126302,23.3765,1968
737.0,0.131590,23.3710,1968
738.0,0.135966,23.3660,1968
739.0,0.139491,23.3610,1969
740.0,0.141729,23.3565,1969
741.0,0.144232,23.3510,1969
742.0,0.147706,23.3460,1969
743.0,0.151324,23.3410,1969
744.0,0.155614,23.3363,1969
745.0,0.157619,23.3310,1969
746.0,0.162454,23.3260,1969
747.0,0.165578,23.3213,1969
748.0,0.170021,23.3166,1969
749.0,0.174294,23.3109,1969
750.0,0.178009,23.3062,1969
751.0,0.182501,23.3012,1969
752.0,0.188253,23.2966,1969
753.0,0.192527,23.2909,1969
754.0,0.198874,23.2862,1969
755.0,0.202128,23.2812,1969
756.0,0.206512,23.2763,1969
757.0,0.211021,23.2710,1969
758.0,0.215736,23.2662,1969
759.0,0.219755,23.2612,1970
760.0,0.223507,23.2563,1970
761.0,0.228525,23.2510,1970
762.0,0.236219,23.2462,1970
763.0,0.239447,23.2412,1970
764.0,0.243785,23.2363,1970
765.0,0.248876,23.2310,1970
766.0,0.253761,23.2262,1970
767.0,0.257708,23.2210,1970
768.0,0.263109,23.2164,1970
769.0,0.267103,23.2110,1970
770.0,0.273464,23.2060,1970
771.0,0.280500,23.2010,1970
772.0,0.284761,23.1960,1970
773.0,0.293019,23.1907,1970
774.0,0.298006,23.1860,1970
775.0,0.303432,23.1810,1970
776.0,0.311727,23.1760,1970
777.0,0.317679,23.1708,1970
778.0,0.324719,23.1658,1970
779.0,0.330770,23.1608,1971
780.0,0.337919,23.1560,1971
781.0,0.342846,23.1507,1971
782.0,0.350269,23.1458,1971
783.0,0.357521,23.1408,1971
784.0,0.363480,23.1360,1971
785.0,0.372058,23.1304,1971
786.0,0.377338,23.1258,1971
787.0,0.383480,23.1204,1971
788.0,0.391477,23.1161,1971
789.0,0.399227,23.1106,1971
790.0,0.403790,23.1058,1971
791.0,0.410512,23.1008,1971
792.0,0.420163,23.0960,1971
793.0,0.428468,23.0906,1971
794.0,0.436807,23.0858,1971
795.0,0.442923,23.0808,1971
796.0,0.451734,23.0758,1971
797.0,0.461559,23.0706,1971
798.0,0.467870,23.0658,1971
799.0,0.477245,23.0608,1972
800.0,0.485184,23.0558,1972
801.0,0.493671,23.0507,1972
802.0,0.502040,23.0458,1972
803.0,0.510024,23.0407,1972
804.0,0.516829,23.0358,1972
805.0,0.527575,23.0305,1972
806.0,0.535879,23.0255,1972
807.0,0.544426,23.0205,1972
808.0,0.554493,23.0156,1972
809.0,0.567401,23.0105,1972
810.0,0.574281,23.0055,1972
811.0,0.585938,23.0007,1972
812.0,0.592895,22.9957,1972
813.0,0.604559,22.9903,1972
814.0,0.614095,22.9855,1972
815.0,0.625165,22.9807,1972
816.0,0.634844,22.9755,1972
817.0,0.646693,22.9703,1972
818.0,0.654293,22.9653,1972
819.0,0.664334,22.9605,1973
820.0,0.672129,22.9555,1973
821.0,0.683193,22.9503,1973
822.0,0.692364,22.9453,1973
823.0,0.699948,22.9405,1973
824.0,0.710101,22.9353,1973
825.0,0.720564,22.9301,1973
826.0,0.729552,22.9253,1973
827.0,0.738175,22.9203,1973
828.0,0.746321,22.9153,1973
829.0,0.756916,22.9101,1973
830.0,0.766995,22.9054,1973
831.0,0.775686,22.9006,1973
832.0,0.784972,22.8956,1973
833.0,0.793011,22.8899,1973
834.0,0.801456,22.8856,1973
835.0,0.810394,22.8804,1973
836.0,0.820424,22.8754,1973
837.0,0.829347,22.8700,1973
838.0,0.840164,22.8652,1973
839.0,0.847177,22.8604,1974
840.0,0.855787,22.8552,1974
841.0,0.865837,22.8500,1974
842.0,0.873887,22.8450,1974
843.0,0.883700,22.8402,1974
844.0,0.893356,22.8350,1974
845.0,0.903352,22.8300,1974
846.0,0.912974,22.8250,1974
847.0,0.921000,22.8202,1974
848.0,0.932579,22.8150,1974
849.0,0.939569,22.8100,1974
850.0,0.949504,22.8050,1974
851.0,0.960272,22.8002,1974
852.0,0.970930,22.7951,1974
853.0,0.975950,22.7898,1974
854.0,0.986312,22.7848,1974
855.0,0.996096,22.7801,1974
856.0,1.007415,22.7751,1974
857.0,1.016507,22.7696,1974
858.0,1.027959,22.7648,1974
859.0,1.038325,22.7601,1975
860.0,1.048170,22.7551,1975
861.0,1.059890,22.7496,1975
862.0,1.071696,22.7446,1975
863.0,1.080138,22.7399,1975
864.0,1.090422,22.7350,1975
865.0,1.101280,22.7293,1975
866.0,1.110980,22.7245,1975
867.0,1.121122,22.7199,1975
868.0,1.131984,22.7145,1975
869.0,1.141978,22.7093,1975
870.0,1.151684,22.7045,1975
871.0,1.162929,22.6997,1975
872.0,1.174631,22.6945,1975
873.0,1.186595,22.6895,1975
874.0,1.195876,22.6845,1975
875.0,1.206902,22.6796,1975
876.0,1.217882,22.6748,1975
877.0,1.231843,22.6693,1975
878.0,1.241565,22.6643,1975
879.0,1.253965,22.6597,1976
880.0,1.265181,22.6545,1976
881.0,1.277869,22.6493,1976
882.0,1.290309,22.6443,1976
883.0,1.298560,22.6393,1976
884.0,1.314744,22.6346,1976
885.0,1.325888,22.6293,1976
886.0,1.336562,22.6243,1976
887.0,1.351829,22.6193,1976
888.0,1.366092,22.6142,1976
889.0,1.379500,22.6093,1976
890.0,1.392179,22.6043,1976
891.0,1.404812,22.5994,1976
892.0,1.418029,22.5943,1976
893.0,1.433738,22.5890,1976
894.0,1.447166,22.5840,1976
895.0,1.462828,22.5791,1976
896.0,1.476348,22.5740,1976
897.0,1.492445,22.5691,1976
898.0,1.509304,22.5641,1976
899.0,1.523973,22.5592,1977
900.0,1.536798,22.5541,1977
901.0,1.555432,22.5491,1977
902.0,1.567940,22.5438,1977
903.0,1.583802,22.5392,1977
904.0,1.596499,22.5339,1977
905.0,1.614931,22.5289,1977
906.0,1.632624,22.5239,1977
907.0,1.650270,22.5193,1977
908.0,1.666800,22.5139,1977
909.0,1.679649,22.5089,1977
910.0,1.697771,22.5039,1977
911.0,1.712769,22.4989,1977
912.0,1.729619,22.4939,1977
913.0,1.747289,22.4889,1977
914.0,1.764287,22.4840,1977
915.0,1.780707,22.4791,1977
916.0,1.797676,22.4741,1977
917.0,1.814428,22.4692,1977
918.0,1.832543,22.4642,1977
919.0,1.852497,22.4592,1978
920.0,1.870574,22.4542,1978
921.0,1.887743,22.4489,1978
922.0,1.905704,22.4439,1978
923.0,1.925251,22.4390,1978
924.0,1.943473,22.4340,1978
925.0,1.961389,22.4290,1978
926.0,1.981784,22.4240,1978
927.0,2.002818,22.4190,1978
928.0,2.020820,22.4140,1978
929.0,2.041898,22.4090,1978
930.0,2.061562,22.4038,1978
931.0,2.080370,22.3991,1978
932.0,2.103169,22.3938,1978
933.0,2.122405,22.3888,1978
934.0,2.144338,22.3836,1978
935.0,2.164607,22.3789,1978
936.0,2.185688,22.3736,1978
937.0,2.202585,22.3688,1978
938.0,2.222030,22.3638,1978
939.0,2.240565,22.3588,1979
940.0,2.259091,22.3538,1979
941.0,2.276218,22.3488,1979
942.0,2.295625,22.3436,1979
943.0,2.315769,22.3389,1979
944.0,2.336528,22.3336,1979
945.0,2.358338,22.3289,1979
946.0,2.381760,22.3236,1979
947.0,2.402960,22.3189,1979
948.0,2.428935,22.3136,1979
949.0,2.452290,22.3087,1979
950.0,2.476893,22.3037,1979
951.0,2.501338,22.2987,1979
952.0,2.526331,22.2937,1979
953.0,2.549490,22.2887,1979
954.0,2.574695,22.2838,1979
955.0,2.600985,22.2788,1979
956.0,2.625970,22.2737,1979
957.0,2.651645,22.2689,1979
958.0,2.678610,22.2640,1979
959.0,2.705515,22.2590,1980
960.0,2.733269,22.2538,1980
961.0,2.762204,22.2491,1980
962.0,2.786685,22.2438,1980
963.0,2.816769,22.2391,1980
964.0,2.843581,22.2339,1980
965.0,2.874249,22.2288,1980
966.0,2.903234,22.2238,1980
967.0,2.931923,22.2192,1980
968.0,2.963130,22.2138,1980
969.0,2.993557,22.2088,1980
970.0,3.024114,22.2039,1980
971.0,3.052397,22.1991,1980
972.0,3.082738,22.1939,1980
973.0,3.113843,22.1889,1980
974.0,3.147133,22.1839,1980
975.0,3.176010,22.1792,1980
976.0,3.212409,22.1740,1980
977.0,3.245470,22.1690,1980
978.0,3.279018,22.1638,1980
979.0,3.311700,22.1593,1981
980.0,3.349461,22.1538,1981
981.0,3.383498,22.1491,1981
982.0,3.419523,22.1438,1981
983.0,3.453783,22.1394,1981
984.0,3.492966,22.1339,1981
985.0,3.527952,22.1289,1981
986.0,3.564677,22.1239,1981
987.0,3.601855,22.1195,1981
988.0,3.643253,22.1140,1981
989.0,3.681882,22.1090,1981
990.0,3.724933,22.1040,1981
991.0,3.768275,22.0993,1981
992.0,3.808072,22.0941,1981
993.0,3.850365,22.0894,1981
994.0,3.894639,22.0841,1981
995.0,3.937398,22.0794,1981
996.0,3.980146,22.0741,1981
997.0,4.020264,22.0695,1981
998.0,4.063064,22.0641,1981
999.0,4.107112,22.0596,1982
1000.0,4.161004,22.0543,1982
1001.0,4.211471,22.0493,1982
1002.0,4.270568,22.0443,1982
1003.0,4.325434,22.0398,1982
1004.0,4.388049,22.0344,1982
1005.0,4.443589,22.0294,1982
1006.0,4.506912,22.0245,1982
1007.0,4.567299,22.0197,1982
1008.0,4.639406,22.0146,1982
1009.0,4.703726,22.0096,1982
1010.0,4.775460,22.0046,1982
1011.0,4.842876,21.9998,1982
1012.0,4.925262,21.9947,1982
1013.0,5.001494,21.9899,1982
1014.0,5.080897,21.9848,1982
1015.0,5.151276,21.9800,1982
1016.0,5.244205,21.9747,1982
1017.0,5.325757,21.9698,1982
1018.0,5.417765,21.9648,1982
1019.0,5.503605,21.9602,1983
1020.0,5.608674,21.9549,1983
1021.0,5.700817,21.9500,1983
1022.0,5.795352,21.9450,1983
1023.0,5.888984,21.9401,1983
