Point No.,Normal Force [N],Gap [mm],Time [s]
1,-0.002869,14.8731,893.0441
2,-0.005455,14.8787,893.0540
3,-0.004859,14.8831,893.0640
4,-0.004407,14.8887,893.0740
5,-0.003404,14.8937,893.0840
6,-0.004293,14.8987,893.0941
7,-0.002506,14.9031,893.1041
8,-0.002340,14.9087,893.1140
9,-0.003000,14.9131,893.1230
10,-0.004517,14.9187,893.1331
11,-0.001284,14.9231,893.1431
12,-0.002174,14.9281,893.1530
13,-0.003577,14.9331,893.1630
14,-0.003224,14.9387,893.1730
15,-0.001824,14.9431,893.1830
16,-0.004318,14.9481,893.1940
17,-0.003748,14.9531,893.2040
18,-0.003568,14.9587,893.2141
19,-0.002044,14.9631,893.2241
36,-0.002425,15.0481,893.3931
37,-0.002661,15.0531,893.4030
38,-0.004082,15.0588,893.4130
39,-0.002460,15.0631,893.4230
40,-0.003972,15.0681,893.4330
41,-0.003739,15.0731,893.4431
42,-0.004564,15.0787,893.4531
43,-0.002427,15.0831,893.4630
44,-0.003535,15.0881,893.4730
45,-0.003713,15.0931,893.4830
46,-0.002743,15.0988,893.4930
47,-0.001452,15.1031,893.5031
48,-0.003596,15.1081,893.5131
49,-0.002820,15.1131,893.5231
50,-0.003811,15.1187,893.5330
51,-0.002775,15.1231,893.5430
52,-0.003154,15.1287,893.5530
53,-0.003161,15.1331,893.5630
54,-0.003881,15.1387,893.5731
55,-0.001742,15.1431,893.5831
56,-0.003643,15.1481,893.5930
57,-0.004302,15.1531,893.6030
58,-0.003161,15.1587,893.6130
59,-0.002418,15.1631,893.6230
60,-0.004618,15.1687,893.6331
61,-0.003933,15.1737,893.6431
62,-0.004365,15.1787,893.6530
63,-0.002972,15.1831,893.6630
64,-0.002843,15.1887,893.6730
65,-0.001263,15.1931,893.6830
73,-0.004092,15.2337,893.7631
74,-0.004000,15.2387,893.7731
75,-0.002544,15.2431,893.7830
76,-0.003023,15.2487,893.7930
77,-0.003004,15.2537,893.8030
78,-0.004328,15.2587,893.8130
79,-0.002637,15.2631,893.8231
80,-0.002523,15.2687,893.8331
81,-0.003982,15.2738,893.8430
82,-0.004861,15.2787,893.8530
83,-0.002240,15.2838,893.8630
84,-0.002247,15.2887,893.8730
85,-0.003694,15.2937,893.8831
86,-0.004365,15.2987,893.8931
87,-0.003570,15.3031,893.9030
88,-0.004152,15.3087,893.9130
89,-0.003086,15.3138,893.9230
90,-0.003615,15.3187,893.9330
91,-0.002095,15.3237,893.9431
92,-0.001270,15.3288,893.9531
93,-0.001859,15.3337,893.9630
94,-0.006254,15.3387,893.9730
95,-0.004447,15.3431,893.9830
96,-0.004159,15.3487,893.9930
97,-0.003110,15.3537,894.0031
98,-0.003051,15.3587,894.0131
99,-0.001625,15.3637,894.0231
100,-0.003463,15.3687,894.0330
101,-0.001915,15.3737,894.0430
102,-0.003575,15.3787,894.0530
109,-0.001707,15.4137,894.1230
110,-0.004816,15.4187,894.1331
111,-0.002352,15.4237,894.1431
112,-0.002481,15.4287,894.1530
113,-0.003535,15.4337,894.1630
114,-0.004833,15.4387,894.1730
115,-0.002766,15.4437,894.1830
116,-0.002368,15.4487,894.1931
117,-0.001819,15.4537,894.2031
118,-0.004377,15.4587,894.2130
119,-0.003556,15.4637,894.2230
120,-0.003900,15.4687,894.2330
121,-0.004433,15.4737,894.2430
122,-0.005471,15.4787,894.2531
123,-0.002960,15.4837,894.2631
124,-0.004414,15.4887,894.2731
125,-0.005132,15.4937,894.2830
126,-0.005310,15.4987,894.2930
127,-0.002387,15.5037,894.3030
128,-0.004029,15.5087,894.3130
129,-0.004066,15.5137,894.3231
130,-0.004456,15.5187,894.3331
131,-0.004281,15.5237,894.3430
132,-0.004655,15.5288,894.3530
133,-0.003152,15.5337,894.3630
134,-0.005191,15.5387,894.3730
135,-0.005167,15.5437,894.3831
136,-0.004845,15.5487,894.3931
137,-0.003776,15.5537,894.4030
145,-0.004316,15.5937,894.4830
146,-0.005560,15.5987,894.4930
147,-0.003493,15.6038,894.5031
148,-0.005282,15.6087,894.5131
149,-0.004239,15.6137,894.5231
150,-0.004152,15.6187,894.5330
151,-0.004131,15.6231,894.5430
152,-0.003912,15.6287,894.5530
153,-0.002296,15.6337,894.5630
154,-0.003421,15.6387,894.5731
155,-0.002743,15.6437,894.5831
156,-0.004721,15.6487,894.5930
157,-0.004342,15.6537,894.6030
158,-0.005394,15.6587,894.6130
159,-0.001824,15.6631,894.6230
160,-0.002595,15.6687,894.6331
161,-0.003678,15.6731,894.6431
162,-0.003977,15.6787,894.6530
163,-0.002960,15.6831,894.6630
164,-0.004873,15.6887,894.6730
165,-0.004931,15.6937,894.6830
166,-0.005495,15.6987,894.6931
167,-0.002960,15.7031,894.7031
168,-0.004384,15.7087,894.7130
169,-0.004010,15.7131,894.7230
170,-0.004615,15.7187,894.7330
171,-0.002775,15.7231,894.7430
172,-0.003213,15.7287,894.7531
173,-0.003792,15.7331,894.7631
181,-0.004234,15.7731,894.8430
182,-0.005275,15.7787,894.8530
183,-0.004875,15.7831,894.8630
184,-0.005420,15.7887,894.8730
185,-0.003771,15.7931,894.8831
186,-0.004400,15.7987,894.8931
187,-0.002130,15.8031,894.9030
188,-0.003851,15.8081,894.9130
189,-0.005053,15.8131,894.9230
190,-0.006572,15.8187,894.9330
191,-0.004718,15.8231,894.9431
192,-0.004174,15.8281,894.9531
193,-0.003210,15.8306,894.9630
194,-0.004274,15.8387,894.9730
195,-0.003117,15.8431,894.9830
196,-0.004075,15.8481,894.9930
197,-0.003112,15.8531,895.0031
198,-0.003933,15.8587,895.0131
199,-0.003951,15.8631,895.0231
200,-0.004583,15.8681,895.0330
201,-0.004431,15.8731,895.0430
202,-0.006287,15.8788,895.0530
203,-0.004805,15.8831,895.0630
204,-0.004975,15.8856,895.0731
205,-0.003851,15.8906,895.0831
206,-0.003577,15.8987,895.0930
207,-0.002277,15.9031,895.1030
208,-0.003107,15.9081,895.1130
209,-0.003961,15.9131,895.1230
217,-0.004922,15.9531,895.2031
218,-0.005950,15.9587,895.2130
219,-0.003400,15.9631,895.2230
220,-0.004234,15.9681,895.2330
221,-0.004795,15.9731,895.2430
222,-0.006395,15.9787,895.2531
223,-0.005062,15.9809,895.2631
224,-0.004403,15.9856,895.2731
225,-0.003421,15.9906,895.2830
226,-0.004809,15.9987,895.2930
227,-0.003166,16.0031,895.3030
228,-0.002937,16.0081,895.3130
229,-0.003594,16.0131,895.3231
230,-0.006329,16.0187,895.3331
231,-0.003566,16.0231,895.3430
232,-0.002925,16.0256,895.3530
233,-0.003082,16.0306,895.3630
234,-0.004269,16.0359,895.3730
235,-0.002256,16.0409,895.3831
236,-0.002708,16.0481,895.3931
237,-0.003117,16.0531,895.4030
238,-0.005247,16.0587,895.4130
239,-0.003089,16.0631,895.4230
240,-0.004302,16.0681,895.4330
241,-0.003898,16.0706,895.4431
242,-0.004590,16.0759,895.4531
243,-0.003524,16.0809,895.4630
244,-0.004295,16.0856,895.4730
245,-0.003732,16.0906,895.4830
246,-0.004529,16.0987,895.4930
254,-0.004293,16.1359,895.5731
255,-0.003563,16.1409,895.5831
256,-0.004286,16.1456,895.5930
257,-0.004057,16.1506,895.6030
258,-0.004152,16.1559,895.6130
259,-0.003374,16.1609,895.6230
260,-0.003834,16.1656,895.6331
261,-0.004470,16.1706,895.6431
262,-0.004982,16.1759,895.6530
263,-0.002754,16.1809,895.6630
264,-0.003168,16.1856,895.6730
265,-0.001747,16.1906,895.6830
266,-0.002630,16.1959,895.6931
267,-0.001826,16.2009,895.7031
268,-0.002780,16.2056,895.7130
269,-0.002446,16.2106,895.7230
270,-0.004477,16.2159,895.7330
271,-0.002953,16.2209,895.7430
272,-0.004234,16.2256,895.7531
273,-0.004267,16.2306,895.7631
274,-0.004033,16.2359,895.7731
275,-0.004026,16.2409,895.7830
276,-0.004763,16.2456,895.7930
277,-0.003110,16.2506,895.8030
278,-0.003753,16.2559,895.8130
279,-0.003830,16.2609,895.8231
280,-0.004216,16.2656,895.8331
281,-0.003355,16.2706,895.8430
282,-0.004679,16.2759,895.8530
290,-0.003701,16.3159,895.9330
291,-0.003297,16.3209,895.9431
292,-0.003790,16.3256,895.9531
293,-0.004407,16.3306,895.9630
294,-0.005422,16.3359,895.9730
295,-0.005081,16.3409,895.9830
296,-0.004585,16.3459,895.9930
297,-0.004302,16.3509,896.0031
298,-0.003706,16.3559,896.0131
299,-0.002633,16.3609,896.0231
300,-0.002658,16.3659,896.0330
301,-0.002191,16.3709,896.0430
302,-0.004716,16.3759,896.0530
303,-0.003748,16.3809,896.0630
304,-0.002869,16.3859,896.0731
305,-0.002376,16.3909,896.0831
306,-0.003729,16.3959,896.0930
307,-0.001803,16.4009,896.1030
308,-0.002799,16.4059,896.1130
309,-0.002843,16.4109,896.1230
310,-0.003743,16.4159,896.1331
311,-0.001503,16.4209,896.1431
312,-0.002906,16.4259,896.1530
313,-0.001693,16.4309,896.1630
314,-0.001660,16.4359,896.1730
315,-0.001447,16.4409,896.1830
316,-0.003797,16.4459,896.1931
317,-0.003442,16.4509,896.2031
318,-0.003788,16.4559,896.2130
326,-0.003439,16.4959,896.2930
327,-0.002588,16.5009,896.3030
328,-0.003248,16.5059,896.3130
329,-0.001660,16.5109,896.3231
330,-0.003154,16.5159,896.3331
331,-0.003009,16.5209,896.3430
332,-0.003213,16.5259,896.3530
333,-0.002691,16.5309,896.3630
334,-0.002046,16.5359,896.3730
335,-0.000734,16.5409,896.3831
336,-0.002324,16.5459,896.3931
337,-0.001922,16.5509,896.4030
338,-0.001567,16.5559,896.4130
339,-0.001501,16.5609,896.4230
340,-0.003161,16.5659,896.4330
341,-0.002820,16.5709,896.4431
342,-0.002025,16.5759,896.4531
343,-0.001583,16.5809,896.4630
344,-0.003276,16.5859,896.4730
345,-0.003121,16.5909,896.4830
346,-0.002591,16.5959,896.4930
347,-0.002233,16.6009,896.5031
348,-0.001840,16.6059,896.5131
349,-0.002301,16.6109,896.5231
350,-0.004159,16.6159,896.5330
351,-0.002883,16.6209,896.5430
352,-0.002848,16.6259,896.5530
353,-0.002032,16.6309,896.5630
354,-0.001541,16.6359,896.5731
363,-0.000582,16.6809,896.6630
364,-0.001695,16.6859,896.6730
365,-0.002600,16.6909,896.6830
366,-0.002955,16.6959,896.6931
367,-0.002167,16.7009,896.7031
368,-0.002789,16.7056,896.7130
369,-0.002441,16.7106,896.7230
370,-0.002913,16.7159,896.7330
371,-0.002579,16.7209,896.7430
372,-0.001742,16.7256,896.7531
373,-0.000842,16.7306,896.7631
374,-0.002139,16.7359,896.7731
375,-0.001401,16.7409,896.7830
376,-0.001447,16.7456,896.7930
377,-0.002404,16.7506,896.8030
378,-0.002764,16.7559,896.8130
379,-0.001602,16.7609,896.8231
380,-0.001637,16.7656,896.8331
381,-0.002747,16.7706,896.8430
382,-0.004038,16.7759,896.8530
383,-0.002160,16.7809,896.8630
384,-0.002651,16.7856,896.8730
385,-0.002025,16.7906,896.8831
386,-0.001417,16.7959,896.8931
387,-0.000379,16.8009,896.9030
388,0.000185,16.8056,896.9130
389,-0.000264,16.8106,896.9230
390,-0.002252,16.8159,896.9330
391,-0.001164,16.8209,896.9431
392,-0.001038,16.8256,896.9531
399,-0.001174,16.8609,897.0231
400,-0.001323,16.8656,897.0330
401,-0.000210,16.8706,897.0430
402,-0.002139,16.8759,897.0530
403,-0.002156,16.8809,897.0630
404,0.000238,16.8856,897.0731
405,-0.000044,16.8906,897.0831
406,-0.002132,16.8956,897.0930
407,-0.000961,16.9006,897.1030
408,-0.000888,16.9056,897.1130
409,-0.001779,16.9081,897.1230
410,-0.002469,16.9131,897.1331
411,-0.001812,16.9209,897.1431
412,-0.000531,16.9256,897.1530
413,-0.000192,16.9306,897.1630
414,-0.000697,16.9356,897.1730
415,-0.000012,16.9406,897.1830
416,0.000243,16.9456,897.1940
417,-0.000044,16.9506,897.2040
418,-0.000809,16.9531,897.2141
419,-0.000627,16.9581,897.2241
420,-0.001001,16.9631,897.2341
421,-0.001104,16.9706,897.2440
422,-0.001733,16.9756,897.2540
423,-0.000442,16.9806,897.2640
424,-0.000895,16.9856,897.2740
425,-0.000332,16.9906,897.2841
426,-0.000414,16.9956,897.2941
