Point No.,Normal Force [N],Gap [mm],Time [s]
13,-0.005039,17.2781,527.3550
14,-0.004702,17.2837,527.3651
15,-0.003407,17.2881,527.3750
16,-0.004384,17.2931,527.3860
17,-0.003711,17.2981,527.3960
18,-0.005555,17.3037,527.4060
19,-0.005088,17.3081,527.4160
20,-0.005756,17.3137,527.4260
21,-0.004823,17.3181,527.4360
22,-0.006339,17.3237,527.4460
23,-0.003306,17.3281,527.4561
24,-0.004047,17.3331,527.4660
25,-0.005981,17.3381,527.4760
26,-0.007393,17.3438,527.4860
27,-0.004968,17.3481,527.4960
28,-0.005319,17.3531,527.5060
29,-0.004664,17.3581,527.5161
30,-0.006037,17.3637,527.5250
31,-0.004468,17.3681,527.5350
32,-0.004835,17.3737,527.5450
33,-0.005109,17.3781,527.5551
34,-0.007344,17.3838,527.5650
35,-0.004339,17.3881,527.5750
36,-0.005913,17.3937,527.5850
37,-0.006088,17.3981,527.5950
38,-0.006327,17.4038,527.6050
39,-0.004730,17.4081,527.6151
40,-0.006542,17.4137,527.6250
41,-0.005184,17.4181,527.6350
42,-0.005859,17.4237,527.6450
49,-0.005354,17.4581,527.7150
50,-0.007875,17.4637,527.7250
51,-0.004176,17.4681,527.7350
52,-0.005488,17.4737,527.7450
53,-0.005083,17.4781,527.7550
54,-0.005845,17.4837,527.7650
55,-0.003568,17.4881,527.7750
56,-0.003823,17.4937,527.7850
57,-0.004335,17.4981,527.7950
58,-0.007526,17.5037,527.8051
59,-0.005378,17.5081,527.8150
60,-0.005668,17.5138,527.8250
61,-0.005361,17.5181,527.8350
62,-0.006289,17.5237,527.8450
63,-0.003582,17.5281,527.8550
64,-0.003682,17.5338,527.8651
65,-0.004089,17.5381,527.8750
66,-0.005672,17.5437,527.8850
67,-0.005043,17.5487,527.8950
68,-0.005198,17.5537,527.9050
69,-0.003400,17.5581,527.9150
70,-0.005345,17.5637,527.9250
71,-0.004513,17.5681,527.9350
72,-0.004919,17.5737,527.9450
73,-0.004438,17.5781,527.9550
74,-0.005703,17.5837,527.9650
75,-0.005572,17.5881,527.9750
76,-0.005635,17.5937,527.9850
77,-0.004398,17.5987,527.9950
86,-0.006318,17.6437,528.0850
87,-0.005125,17.6487,528.0950
88,-0.005873,17.6537,528.1050
89,-0.005777,17.6581,528.1151
90,-0.005794,17.6637,528.1250
91,-0.003891,17.6681,528.1350
92,-0.005371,17.6737,528.1450
93,-0.005003,17.6781,528.1550
94,-0.005431,17.6837,528.1650
95,-0.005209,17.6887,528.1750
96,-0.005457,17.6937,528.1850
97,-0.004141,17.6981,528.1950
98,-0.006014,17.7037,528.2050
99,-0.003888,17.7081,528.2150
100,-0.004756,17.7137,528.2250
101,-0.006678,17.7181,528.2350
102,-0.007522,17.7237,528.2450
103,-0.005848,17.7281,528.2550
104,-0.006320,17.7337,528.2650
105,-0.004809,17.7381,528.2750
106,-0.005717,17.7437,528.2850
107,-0.004660,17.7481,528.2950
108,-0.005382,17.7537,528.3051
109,-0.004725,17.7581,528.3150
110,-0.005247,17.7637,528.3250
111,-0.003386,17.7681,528.3350
112,-0.005478,17.7737,528.3450
113,-0.006317,17.7781,528.3550
114,-0.007889,17.7837,528.3651
115,-0.005406,17.7881,528.3750
121,-0.005069,17.8181,528.4350
122,-0.005574,17.8237,528.4450
123,-0.004103,17.8281,528.4550
124,-0.005296,17.8338,528.4650
125,-0.004178,17.8381,528.4750
126,-0.005345,17.8437,528.4850
127,-0.002322,17.8481,528.4950
128,-0.003718,17.8531,528.5050
129,-0.004426,17.8581,528.5150
130,-0.006091,17.8638,528.5250
131,-0.004426,17.8681,528.5350
132,-0.004992,17.8731,528.5450
133,-0.004064,17.8781,528.5551
134,-0.004562,17.8838,528.5650
135,-0.002820,17.8881,528.5750
136,-0.003610,17.8931,528.5850
137,-0.004721,17.8981,528.5950
138,-0.007241,17.9037,528.6050
139,-0.003816,17.9081,528.6151
140,-0.003834,17.9131,528.6250
141,-0.003867,17.9181,528.6350
142,-0.004377,17.9238,528.6450
143,-0.002649,17.9259,528.6550
144,-0.004396,17.9331,528.6650
145,-0.003278,17.9381,528.6750
146,-0.003409,17.9438,528.6850
147,-0.002595,17.9481,528.6950
148,-0.004141,17.9531,528.7050
149,-0.004180,17.9581,528.7150
158,-0.004636,18.0037,528.8051
159,-0.002301,18.0081,528.8150
160,-0.003596,18.0131,528.8250
161,-0.002577,18.0181,528.8350
162,-0.003559,18.0209,528.8450
163,-0.001669,18.0259,528.8550
164,-0.002572,18.0331,528.8651
165,-0.001798,18.0381,528.8750
166,-0.003549,18.0437,528.8850
167,-0.003407,18.0481,528.8950
168,-0.003657,18.0531,528.9050
169,-0.002958,18.0581,528.9150
170,-0.003650,18.0637,528.9250
171,-0.003428,18.0659,528.9350
172,-0.004274,18.0706,528.9450
173,-0.004134,18.0756,528.9550
174,-0.005146,18.0837,528.9650
175,-0.002114,18.0881,528.9750
176,-0.002986,18.0931,528.9850
177,-0.002359,18.0981,528.9950
178,-0.003227,18.1037,529.0050
179,-0.003168,18.1081,529.0150
180,-0.002658,18.1106,529.0250
181,-0.001613,18.1156,529.0350
182,-0.002946,18.1209,529.0450
183,-0.001323,18.1259,529.0551
184,-0.002069,18.1331,529.0650
185,-0.002885,18.1381,529.0750
186,-0.004202,18.1431,529.0850
194,-0.003028,18.1831,529.1650
195,-0.001401,18.1881,529.1750
196,-0.002614,18.1931,529.1850
197,-0.002373,18.1981,529.1950
198,-0.004389,18.2006,529.2050
199,-0.002619,18.2056,529.2150
200,-0.002415,18.2106,529.2250
201,-0.001319,18.2156,529.2350
202,-0.002485,18.2209,529.2450
203,-0.000718,18.2259,529.2550
204,-0.000835,18.2306,529.2650
205,-0.000072,18.2356,529.2750
206,-0.002446,18.2409,529.2850
207,-0.001202,18.2459,529.2950
208,-0.001592,18.2506,529.3051
209,-0.002004,18.2556,529.3150
210,-0.002511,18.2609,529.3250
211,-0.000454,18.2659,529.3350
212,0.000014,18.2706,529.3450
213,0.000030,18.2756,529.3550
214,-0.001176,18.2809,529.3651
215,-0.000297,18.2859,529.3750
216,-0.001349,18.2906,529.3850
217,-0.001281,18.2956,529.3950
218,-0.002289,18.3009,529.4050
219,-0.000912,18.3059,529.4150
220,-0.000094,18.3106,529.4250
221,0.000839,18.3156,529.4350
222,-0.001480,18.3209,529.4450
230,-0.001038,18.3609,529.5250
231,-0.000643,18.3659,529.5350
232,-0.002640,18.3706,529.5450
233,-0.000753,18.3756,529.5551
234,-0.000288,18.3809,529.5650
235,-0.000489,18.3859,529.5750
236,-0.001185,18.3906,529.5850
237,-0.000666,18.3956,529.5950
238,-0.002336,18.4009,529.6050
239,-0.000264,18.4059,529.6151
240,-0.000708,18.4106,529.6250
241,-0.001183,18.4156,529.6350
242,-0.002053,18.4209,529.6450
243,-0.001569,18.4259,529.6550
244,-0.002102,18.4306,529.6650
245,-0.000079,18.4356,529.6750
246,-0.000426,18.4409,529.6850
247,-0.000760,18.4459,529.6950
248,-0.001045,18.4506,529.7050
249,-0.000570,18.4556,529.7150
250,-0.001756,18.4609,529.7250
251,-0.001952,18.4659,529.7350
252,-0.001204,18.4706,529.7450
253,-0.000680,18.4756,529.7550
254,-0.001648,18.4809,529.7650
255,-0.000666,18.4859,529.7750
256,-0.000238,18.4906,529.7850
257,0.000061,18.4956,529.7950
258,-0.001517,18.5009,529.8051
259,-0.000166,18.5059,529.8150
266,0.000858,18.5409,529.8850
267,0.000867,18.5459,529.8950
268,-0.000290,18.5509,529.9050
269,-0.000379,18.5559,529.9150
270,-0.001550,18.5609,529.9250
271,-0.000491,18.5659,529.9350
272,-0.001153,18.5706,529.9450
273,0.001716,18.5756,529.9550
274,-0.000091,18.5809,529.9650
275,-0.000019,18.5859,529.9750
276,0.000566,18.5906,529.9850
277,0.001181,18.5956,529.9950
278,-0.000028,18.6009,530.0050
279,0.001459,18.6059,530.0150
280,0.000330,18.6109,530.0250
281,0.000334,18.6159,530.0350
282,0.001019,18.6209,530.0450
283,0.002167,18.6259,530.0551
284,0.000648,18.6306,530.0650
285,0.000601,18.6356,530.0750
286,-0.000657,18.6409,530.0850
287,0.000236,18.6459,530.0950
288,0.000629,18.6509,530.1050
289,0.000753,18.6559,530.1151
290,-0.000192,18.6609,530.1250
291,0.001588,18.6659,530.1350
292,0.001335,18.6709,530.1450
293,0.000914,18.6759,530.1550
294,-0.000800,18.6809,530.1650
302,0.001478,18.7209,530.2450
303,0.000956,18.7259,530.2550
304,0.000044,18.7306,530.2650
305,0.001321,18.7356,530.2750
306,0.000245,18.7409,530.2850
307,0.001069,18.7459,530.2950
308,0.001751,18.7506,530.3051
309,0.001384,18.7556,530.3150
310,-0.000475,18.7609,530.3250
311,0.000842,18.7659,530.3350
312,0.001183,18.7706,530.3450
313,-0.000430,18.7756,530.3550
314,-0.001354,18.7809,530.3651
315,0.000641,18.7859,530.3750
316,0.001141,18.7906,530.3850
317,0.001534,18.7956,530.3950
318,0.000187,18.8009,530.4050
319,0.000253,18.8059,530.4150
320,0.000437,18.8106,530.4250
321,0.001010,18.8156,530.4350
322,0.000178,18.8209,530.4450
323,0.000547,18.8259,530.4550
324,0.001917,18.8306,530.4650
325,0.001917,18.8356,530.4750
326,0.000823,18.8409,530.4850
327,0.001733,18.8459,530.4950
328,0.001655,18.8506,530.5050
329,-0.000056,18.8556,530.5150
330,-0.001265,18.8609,530.5250
338,-0.000512,18.9006,530.6050
339,0.001253,18.9056,530.6151
340,0.002506,18.9106,530.6250
341,0.003248,18.9156,530.6350
342,0.002612,18.9209,530.6450
343,0.002757,18.9259,530.6550
344,0.003091,18.9306,530.6650
345,0.002551,18.9356,530.6750
346,0.001115,18.9406,530.6850
347,0.001531,18.9456,530.6950
348,0.001658,18.9506,530.7050
349,0.000910,18.9556,530.7150
350,-0.000054,18.9581,530.7250
351,0.001354,18.9656,530.7350
352,0.001552,18.9706,530.7450
353,0.001552,18.9756,530.7550
354,0.000900,18.9806,530.7650
355,0.002001,18.9856,530.7750
356,0.002455,18.9906,530.7850
357,0.002738,18.9953,530.7950
358,0.002034,19.0003,530.8051
359,0.001349,19.0056,530.8150
360,0.001216,19.0081,530.8250
361,0.001499,19.0131,530.8350
362,0.000531,19.0206,530.8450
363,0.001111,19.0256,530.8550
364,0.001590,19.0306,530.8651
365,0.000264,19.0353,530.8750
366,-0.000231,19.0403,530.8850
374,0.001267,19.0803,530.9650
375,0.002214,19.0856,530.9750
376,0.002691,19.0906,530.9850
377,0.001349,19.0953,530.9950
378,0.001146,19.1003,531.0050
379,0.002607,19.1031,531.0150
380,0.002392,19.1081,531.0250
381,0.001064,19.1131,531.0350
382,0.000694,19.1175,531.0450
383,-0.000021,19.1256,531.0551
384,0.000835,19.1306,531.0650
385,0.000292,19.1353,531.0750
386,0.000037,19.1403,531.0850
387,0.000970,19.1456,531.0950
388,0.002857,19.1506,531.1050
389,0.003128,19.1531,531.1151
390,0.001562,19.1575,531.1250
391,0.000608,19.1631,531.1350
392,0.001538,19.1706,531.1450
393,0.001894,19.1753,531.1550
394,-0.000154,19.1803,531.1650
395,0.000680,19.1853,531.1750
396,0.002986,19.1903,531.1850
397,0.001775,19.1953,531.1950
398,0.000846,19.1975,531.2050
399,0.001740,19.2031,531.2150
400,0.002523,19.2081,531.2250
401,0.002518,19.2131,531.2350
402,0.003177,19.2203,531.2450
403,0.002733,19.2253,531.2550
410,-0.000353,19.2575,531.3250
411,0.000800,19.2631,531.3350
412,0.001714,19.2681,531.3450
413,0.000585,19.2731,531.3550
414,0.000779,19.2775,531.3651
415,0.002319,19.2831,531.3750
416,0.001726,19.2881,531.3860
417,-0.001092,19.2931,531.3960
418,0.000330,19.2981,531.4060
419,0.001167,19.3031,531.4160
420,0.002803,19.3081,531.4260
421,0.003114,19.3131,531.4360
422,0.002803,19.3175,531.4460
423,0.001611,19.3231,531.4561
424,0.002731,19.3281,531.4660
425,0.002081,19.3331,531.4760
426,0.000573,19.3375,531.4860
427,0.000744,19.3431,531.4960
428,0.001625,19.3481,531.5060
429,0.001527,19.3531,531.5161
430,0.001651,19.3575,531.5260
431,0.002167,19.3631,531.5360
432,0.004138,19.3681,531.5460
433,0.001737,19.3731,531.5560
434,0.000390,19.3775,531.5660
435,0.000945,19.3831,531.5760
436,0.003065,19.3881,531.5860
437,0.001831,19.3931,531.5960
438,0.000832,19.3981,531.6060
439,-0.000643,19.4031,531.6160
440,0.000594,19.4081,531.6260
441,0.002397,19.4131,531.6360
442,0.001644,19.4175,531.6460
443,0.000821,19.4231,531.6560
444,0.003138,19.4281,531.6660
445,0.001704,19.4331,531.6760
446,-0.000033,19.4381,531.6860
447,0.000180,19.4431,531.6960
448,0.002256,19.4481,531.7061
449,0.000290,19.4531,531.7160
450,-0.000297,19.4575,531.7260
451,0.000652,19.4631,531.7360
452,0.002177,19.4681,531.7460
453,0.000381,19.4731,531.7560
454,0.000776,19.4775,531.7661
455,0.001396,19.4831,531.7760
456,0.001798,19.4881,531.7860
457,0.001948,19.4931,531.7960
467,-0.000818,19.5431,531.8960
468,0.002308,19.5481,531.9060
469,0.002128,19.5531,531.9160
470,0.001066,19.5575,531.9260
471,-0.000491,19.5631,531.9360
472,0.001129,19.5681,531.9460
473,0.000524,19.5731,531.9561
474,0.000970,19.5781,531.9660
475,-0.000440,19.5831,531.9760
476,0.000673,19.5881,531.9860
477,0.000005,19.5931,531.9960
478,-0.000472,19.5975,532.0060
479,-0.000129,19.6031,532.0161
480,0.001882,19.6081,532.0260
481,0.001188,19.6131,532.0360
482,0.000110,19.6175,532.0460
483,0.000108,19.6231,532.0560
484,0.001510,19.6281,532.0660
485,0.000849,19.6331,532.0760
486,0.000260,19.6381,532.0860
487,-0.000570,19.6431,532.0960
488,0.000975,19.6481,532.1060
489,-0.000594,19.6531,532.1160
490,-0.001113,19.6581,532.1260
491,0.000087,19.6631,532.1360
492,0.002373,19.6681,532.1460
493,0.002698,19.6731,532.1560
494,0.000830,19.6775,532.1660
495,-0.000433,19.6831,532.1760
503,-0.001153,19.7231,532.2560
504,0.001401,19.7281,532.2661
505,-0.000126,19.7331,532.2760
506,-0.000704,19.7381,532.2860
507,-0.001740,19.7431,532.2960
508,0.000713,19.7481,532.3060
509,0.000802,19.7531,532.3160
510,0.000224,19.7575,532.3260
511,-0.000940,19.7631,532.3360
512,0.000065,19.7681,532.3460
513,-0.000853,19.7731,532.3560
514,-0.000594,19.7775,532.3660
515,-0.001069,19.7831,532.3760
516,0.000510,19.7881,532.3860
517,-0.000533,19.7931,532.3960
518,-0.002055,19.7975,532.4060
519,-0.002866,19.8031,532.4160
520,-0.000021,19.8081,532.4260
521,-0.001139,19.8131,532.4360
522,-0.001061,19.8175,532.4460
523,-0.001347,19.8231,532.4561
524,0.000468,19.8275,532.4660
525,-0.000157,19.8331,532.4760
526,0.000220,19.8375,532.4860
527,0.000021,19.8431,532.4960
528,0.001370,19.8475,532.5060
529,-0.000991,19.8525,532.5161
530,-0.001183,19.8575,532.5260
531,-0.001718,19.8631,532.5360
532,-0.001108,19.8675,532.5460
540,0.000570,19.9075,532.6260
541,-0.000341,19.9125,532.6360
542,-0.002139,19.9175,532.6460
543,-0.001401,19.9225,532.6560
544,0.001590,19.9281,532.6660
545,0.000016,19.9325,532.6760
546,-0.000643,19.9375,532.6860
547,-0.002062,19.9425,532.6960
548,-0.000241,19.9475,532.7061
549,-0.001835,19.9525,532.7160
550,-0.002181,19.9575,532.7260
551,-0.003587,19.9625,532.7360
552,-0.001571,19.9675,532.7460
553,-0.001688,19.9731,532.7560
554,-0.001803,19.9775,532.7661
555,-0.002888,19.9825,532.7760
556,-0.000554,19.9875,532.7860
557,-0.002032,19.9925,532.7960
558,-0.002284,19.9975,532.8060
