Point No.,Normal Force [N],Gap [mm],Time [s]
1.0,3.952539,10.9996,1991
2.0,3.745457,11.0183,1992
3.0,3.517710,11.0431,1992
4.0,3.307082,11.0678,1992
5.0,3.115766,11.0928,1992
6.0,2.944085,11.1178,1992
7.0,2.783541,11.1427,1992
8.0,2.632903,11.1674,1992
9.0,2.494544,11.1920,1992
10.0,2.357177,11.2175,1992
11.0,2.232614,11.2424,1992
12.0,2.115237,11.2671,1992
13.0,1.973527,11.2913,1992
14.0,1.828578,11.3163,1992
15.0,1.681850,11.3413,1992
16.0,1.527916,11.3659,1992
17.0,1.372376,11.3909,1992
18.0,1.223996,11.4160,1992
19.0,1.074481,11.4409,1992
20.0,0.922878,11.4655,1992
21.0,0.776928,11.4906,1992
22.0,0.637305,11.5156,1993
23.0,0.486075,11.5407,1993
24.0,0.368596,11.5655,1993
25.0,0.255486,11.5905,1993
26.0,0.139391,11.6153,1993
27.0,0.027259,11.6404,1993
28.0,-0.079601,11.6652,1993
29.0,-0.189099,11.6903,1993
30.0,-0.292757,11.7151,1993
31.0,-0.382120,11.7401,1993
32.0,-0.460766,11.7650,1993
33.0,-0.567915,11.7900,1993
34.0,-0.666614,11.8149,1993
35.0,-0.753120,11.8399,1993
36.0,-0.836563,11.8645,1993
37.0,-0.917309,11.8896,1993
38.0,-0.986039,11.9147,1993
39.0,-1.051563,11.9396,1993
40.0,-1.107685,11.9643,1993
41.0,-1.159499,11.9894,1993
42.0,-1.196910,12.0146,1994
43.0,-1.241679,12.0395,1994
44.0,-1.286940,12.0642,1994
45.0,-1.331531,12.0892,1994
46.0,-1.370255,12.1142,1994
47.0,-1.415993,12.1392,1994
48.0,-1.454073,12.1641,1994
49.0,-1.482517,12.1891,1994
50.0,-1.533048,12.2141,1994
51.0,-1.579773,12.2391,1994
52.0,-1.606064,12.2641,1994
53.0,-1.652914,12.2890,1994
54.0,-1.686244,12.3140,1994
55.0,-1.728672,12.3381,1994
56.0,-1.721849,12.3627,1994
57.0,-1.752014,12.3877,1994
58.0,-1.792435,12.4127,1994
59.0,-1.810872,12.4379,1994
60.0,-1.839908,12.4627,1994
61.0,-1.874470,12.4877,1994
62.0,-1.863736,12.5129,1995
63.0,-1.884903,12.5379,1995
64.0,-1.883238,12.5627,1995
65.0,-1.847111,12.5877,1995
66.0,-1.818539,12.6129,1995
67.0,-1.813588,12.6379,1995
68.0,-1.749296,12.6628,1995
69.0,-1.677831,12.6878,1995
70.0,-1.635805,12.7130,1995
71.0,-1.587481,12.7381,1995
72.0,-1.531744,12.7629,1995
73.0,-1.545948,12.7879,1995
74.0,-1.526848,12.8131,1995
75.0,-1.450977,12.8379,1995
76.0,-1.390074,12.8629,1995
77.0,-1.264520,12.8880,1995
78.0,-1.082152,12.9131,1995
79.0,-1.066660,12.9381,1995
80.0,-0.996958,12.9631,1995
81.0,-0.956801,12.9879,1995
82.0,-0.910269,13.0130,1996
83.0,-0.831661,13.0382,1996
84.0,-0.833024,13.0632,1996
85.0,-0.721901,13.0880,1996
86.0,-0.651214,13.1131,1996
87.0,-0.654646,13.1380,1996
88.0,-0.651895,13.1628,1996
89.0,-0.568449,13.1878,1996
90.0,-0.509039,13.2131,1996
91.0,-0.439399,13.2381,1996
92.0,-0.365443,13.2625,1996
93.0,-0.340996,13.2871,1996
94.0,-0.338682,13.3132,1996
95.0,-0.286970,13.3382,1996
96.0,-0.247084,13.3630,1996
97.0,-0.215759,13.3867,1996
98.0,-0.178231,13.4120,1996
99.0,-0.146795,13.4370,1996
100.0,-0.099997,13.4619,1996
101.0,-0.094019,13.4868,1996
102.0,-0.022907,13.5122,1997
103.0,0.003718,13.5371,1997
104.0,0.002806,13.5620,1997
105.0,0.001526,13.5870,1997
106.0,0.005584,13.6121,1997
107.0,0.004642,13.6371,1997
108.0,0.003687,13.6620,1997
109.0,0.004488,13.6869,1997
110.0,0.005622,13.7121,1997
111.0,0.003308,13.7371,1997
112.0,0.005985,13.7620,1997
113.0,0.003211,13.7869,1997
114.0,0.005299,13.8121,1997
115.0,0.006388,13.8369,1997
116.0,0.006371,13.8619,1997
117.0,0.002762,13.8869,1997
118.0,0.004304,13.9119,1997
119.0,0.003658,13.9368,1997
120.0,0.006325,13.9619,1997
121.0,0.003366,13.9866,1997
122.0,0.003264,14.0116,1998
123.0,0.003732,14.0368,1998
124.0,0.006771,14.0616,1998
125.0,0.001326,14.0864,1998
126.0,0.003905,14.1114,1998
127.0,0.002353,14.1363,1998
128.0,0.004527,14.1613,1998
129.0,0.003491,14.1864,1998
130.0,0.003366,14.2114,1998
131.0,0.001065,14.2363,1998
132.0,0.003847,14.2613,1998
133.0,0.001023,14.2863,1998
134.0,0.002331,14.3112,1998
135.0,0.000906,14.3358,1998
136.0,0.001690,14.3613,1998
137.0,0.000808,14.3863,1998
138.0,0.001661,14.4113,1998
139.0,0.000065,14.4354,1998
140.0,0.000368,14.4604,1998
141.0,-0.001046,14.4854,1998
142.0,-0.000719,14.5104,1999
143.0,-0.000222,14.5354,1999
144.0,0.000403,14.5604,1999
145.0,-0.001427,14.5854,1999
146.0,0.000204,14.6104,1999
147.0,-0.003239,14.6354,1999
148.0,0.001512,14.6604,1999
149.0,-0.001632,14.6854,1999
150.0,-0.002234,14.7104,1999
151.0,-0.001870,14.7354,1999
152.0,-0.000934,14.7604,1999
153.0,-0.002352,14.7854,1999
154.0,-0.002335,14.8104,1999
155.0,-0.001646,14.8354,1999
156.0,-0.001918,14.8604,1999
157.0,-0.004315,14.8849,1999
158.0,-0.003845,14.9098,1999
159.0,-0.005625,14.9349,1999
160.0,-0.001411,14.9599,1999
161.0,-0.004437,14.9849,1999
