Point No.,Normal Force [N],Gap [mm],Time [s]
1,0.152284,11.8532,988.2330
2,0.153589,11.8532,988.2380
3,0.153519,11.8532,988.2430
4,0.152364,11.8532,988.2480
5,0.151672,11.8532,988.2531
6,0.150016,11.8532,988.2581
7,0.150035,11.8538,988.2631
8,0.148459,11.8538,988.2681
9,0.148244,11.8557,988.2720
10,0.147800,11.8557,988.2770
11,0.144830,11.8595,988.2820
12,0.145237,11.8595,988.2870
13,0.144723,11.8638,988.2921
14,0.142029,11.8638,988.2971
15,0.147328,11.8688,988.3021
16,0.147239,11.8688,988.3080
17,0.146804,11.8738,988.3130
18,0.142852,11.8738,988.3181
19,0.142801,11.8782,988.3231
20,0.138499,11.8782,988.3281
21,0.139747,11.8832,988.3331
22,0.136025,11.8832,988.3381
23,0.140065,11.8888,988.3430
24,0.135029,11.8888,988.3480
25,0.135960,11.8932,988.3530
26,0.129652,11.8932,988.3580
27,0.132654,11.8982,988.3630
28,0.126383,11.8982,988.3680
29,0.129469,11.9038,988.3730
30,0.121286,11.9038,988.3771
31,0.129451,11.9088,988.3820
32,0.121716,11.9088,988.3870
33,0.127491,11.9138,988.3920
34,0.119121,11.9138,988.3970
35,0.125986,11.9182,988.4020
36,0.116928,11.9182,988.4070
37,0.122371,11.9232,988.4120
38,0.113065,11.9232,988.4171
39,0.120552,11.9282,988.4221
40,0.112584,11.9282,988.4271
41,0.118583,11.9332,988.4321
42,0.109909,11.9332,988.4371
43,0.117667,11.9382,988.4420
44,0.108922,11.9382,988.4470
45,0.114889,11.9432,988.4520
46,0.105588,11.9432,988.4570
47,0.113262,11.9488,988.4620
48,0.105116,11.9488,988.4670
49,0.111966,11.9538,988.4720
50,0.103203,11.9538,988.4771
51,0.111251,11.9582,988.4821
52,0.102464,11.9582,988.4871
53,0.107603,11.9632,988.4921
54,0.097957,11.9632,988.4971
55,0.106823,11.9682,988.5021
56,0.098929,11.9682,988.5070
57,0.106322,11.9732,988.5120
58,0.097437,11.9732,988.5170
59,0.105345,11.9782,988.5220
60,0.096409,11.9782,988.5270
61,0.101604,11.9832,988.5320
62,0.092354,11.9832,988.5370
63,0.101899,11.9882,988.5421
64,0.093477,11.9882,988.5471
65,0.100393,11.9932,988.5521
66,0.091167,11.9932,988.5571
67,0.098303,11.9982,988.5621
68,0.089376,11.9982,988.5670
69,0.095871,12.0032,988.5720
70,0.086972,12.0032,988.5770
71,0.095740,12.0082,988.5820
72,0.087655,12.0082,988.5870
73,0.094964,12.0132,988.5920
74,0.085485,12.0132,988.5970
75,0.092471,12.0182,988.6021
76,0.083582,12.0182,988.6071
77,0.089755,12.0232,988.6121
78,0.080692,12.0232,988.6171
79,0.089731,12.0282,988.6221
80,0.081945,12.0282,988.6271
81,0.088922,12.0332,988.6320
82,0.079504,12.0332,988.6370
83,0.086888,12.0382,988.6420
84,0.078186,12.0382,988.6470
85,0.084891,12.0432,988.6520
86,0.075703,12.0432,988.6570
87,0.084017,12.0488,988.6620
88,0.075773,12.0488,988.6671
89,0.083297,12.0532,988.6721
90,0.074730,12.0532,988.6771
91,0.083161,12.0582,988.6821
92,0.074636,12.0582,988.6871
93,0.080636,12.0632,988.6920
94,0.071008,12.0632,988.6970
95,0.078957,12.0682,988.7020
96,0.070330,12.0682,988.7070
97,0.076816,12.0732,988.7120
98,0.068123,12.0732,988.7170
99,0.076488,12.0782,988.7220
100,0.067758,12.0782,988.7271
101,0.073341,12.0832,988.7321
102,0.063666,12.0832,988.7371
103,0.072775,12.0882,988.7421
104,0.065303,12.0882,988.7471
105,0.073351,12.0932,988.7521
106,0.064433,12.0932,988.7570
107,0.071765,12.0982,988.7620
108,0.062843,12.0982,988.7670
109,0.069661,12.1032,988.7720
110,0.061038,12.1032,988.7770
111,0.069843,12.1082,988.7820
112,0.062095,12.1082,988.7870
113,0.069137,12.1132,988.7921
114,0.060463,12.1132,988.7971
115,0.068389,12.1182,988.8021
116,0.059719,12.1182,988.8071
117,0.065574,12.1232,988.8121
118,0.056484,12.1232,988.8170
119,0.065738,12.1282,988.8220
120,0.057610,12.1282,988.8270
121,0.063863,12.1332,988.8320
122,0.054852,12.1332,988.8370
123,0.063245,12.1382,988.8420
124,0.055754,12.1382,988.8470
125,0.062965,12.1432,988.8521
126,0.053276,12.1432,988.8571
127,0.060664,12.1482,988.8621
128,0.052869,12.1482,988.8671
129,0.060865,12.1532,988.8721
130,0.053009,12.1532,988.8771
131,0.061272,12.1582,988.8820
132,0.052640,12.1582,988.8870
133,0.057854,12.1625,988.8920
134,0.047781,12.1625,988.8970
135,0.055670,12.1682,988.9020
136,0.048048,12.1682,988.9070
137,0.056095,12.1732,988.9120
138,0.047767,12.1732,988.9171
139,0.055520,12.1775,988.9221
140,0.046112,12.1775,988.9271
141,0.051597,12.1832,988.9321
142,0.042689,12.1832,988.9371
143,0.052214,12.1882,988.9420
144,0.045064,12.1882,988.9470
145,0.052612,12.1925,988.9520
146,0.043587,12.1925,988.9570
147,0.050461,12.1982,988.9620
148,0.041786,12.1981,988.9670
149,0.048366,12.2032,988.9720
150,0.040005,12.2031,988.9771
151,0.048936,12.2082,988.9821
152,0.041066,12.2082,988.9871
153,0.047061,12.2132,988.9921
154,0.037470,12.2131,988.9971
155,0.045289,12.2175,989.0021
156,0.038106,12.2175,989.0070
157,0.045957,12.2225,989.0120
158,0.037419,12.2225,989.0170
159,0.046074,12.2282,989.0220
160,0.037685,12.2281,989.0270
161,0.043521,12.2325,989.0320
162,0.034300,12.2325,989.0370
163,0.042927,12.2375,989.0421
164,0.035866,12.2375,989.0471
165,0.042941,12.2425,989.0521
166,0.034538,12.2425,989.0571
167,0.041824,12.2481,989.0621
168,0.033902,12.2481,989.0670
169,0.040711,12.2531,989.0720
170,0.032205,12.2531,989.0770
171,0.039911,12.2581,989.0820
172,0.031789,12.2581,989.0870
173,0.037779,12.2625,989.0920
174,0.028698,12.2625,989.0970
175,0.036685,12.2681,989.1021
176,0.029895,12.2681,989.1071
177,0.037110,12.2725,989.1121
178,0.028740,12.2725,989.1171
179,0.035787,12.2775,989.1221
180,0.027884,12.2775,989.1271
181,0.033888,12.2825,989.1320
182,0.025803,12.2825,989.1370
183,0.033804,12.2881,989.1420
184,0.026406,12.2881,989.1470
185,0.033177,12.2931,989.1520
186,0.025041,12.2931,989.1570
187,0.031630,12.2981,989.1620
188,0.023937,12.2981,989.1671
189,0.030512,12.3031,989.1721
190,0.022918,12.3031,989.1771
191,0.031129,12.3081,989.1821
192,0.024143,12.3081,989.1871
193,0.030119,12.3125,989.1920
194,0.022343,12.3125,989.1970
195,0.029418,12.3175,989.2020
196,0.022801,12.3175,989.2070
197,0.029488,12.3225,989.2120
198,0.021066,12.3225,989.2170
199,0.027510,12.3281,989.2220
200,0.020201,12.3281,989.2271
201,0.026603,12.3325,989.2321
202,0.018831,12.3325,989.2371
203,0.025574,12.3381,989.2421
204,0.018382,12.3381,989.2471
205,0.023769,12.3431,989.2521
206,0.015642,12.3431,989.2570
207,0.024115,12.3481,989.2620
208,0.018452,12.3481,989.2670
209,0.025434,12.3531,989.2720
210,0.017554,12.3531,989.2770
211,0.023367,12.3575,989.2820
212,0.016184,12.3575,989.2870
213,0.022029,12.3625,989.2921
214,0.014828,12.3625,989.2971
215,0.021842,12.3681,989.3021
216,0.015240,12.3681,989.3071
217,0.020234,12.3725,989.3121
218,0.012116,12.3725,989.3170
219,0.018915,12.3775,989.3220
220,0.012485,12.3775,989.3270
221,0.017802,12.3831,989.3320
222,0.010115,12.3831,989.3370
223,0.016142,12.3881,989.3420
224,0.009600,12.3881,989.3470
225,0.015413,12.3931,989.3521
226,0.008445,12.3931,989.3571
227,0.015357,12.3981,989.3621
228,0.009394,12.3981,989.3671
229,0.014384,12.4025,989.3721
230,0.007173,12.4025,989.3771
231,0.014220,12.4081,989.3820
232,0.009025,12.4081,989.3870
233,0.014898,12.4125,989.3920
234,0.007678,12.4125,989.3970
235,0.013561,12.4175,989.4020
236,0.007819,12.4175,989.4070
237,0.013243,12.4225,989.4120
238,0.006126,12.4225,989.4171
239,0.011433,12.4281,989.4221
240,0.005228,12.4281,989.4271
241,0.010246,12.4331,989.4321
242,0.003311,12.4331,989.4371
243,0.008389,12.4381,989.4420
244,0.002324,12.4381,989.4470
245,0.007374,12.4431,989.4520
246,0.001188,12.4431,989.4570
247,0.007622,12.4481,989.4620
248,0.002072,12.4481,989.4670
249,0.006710,12.4525,989.4720
250,-0.000767,12.4525,989.4771
251,0.004919,12.4575,989.4821
252,-0.000108,12.4575,989.4871
253,0.006163,12.4625,989.4921
254,0.000009,12.4625,989.4971
255,0.005438,12.4681,989.5021
256,-0.000435,12.4681,989.5070
257,0.004527,12.4725,989.5120
258,-0.001997,12.4725,989.5170
259,0.003442,12.4781,989.5220
260,-0.002282,12.4781,989.5270
261,0.001235,12.4831,989.5320
262,-0.005424,12.4831,989.5370
263,0.000767,12.4881,989.5421
264,-0.003259,12.4881,989.5471
265,0.002399,12.4931,989.5521
266,-0.004064,12.4931,989.5571
267,0.000538,12.4975,989.5621
268,-0.005490,12.4975,989.5670
269,-0.001552,12.5025,989.5720
270,-0.007594,12.5025,989.5770
271,-0.002385,12.5081,989.5820
272,-0.006958,12.5081,989.5870
273,-0.002202,12.5125,989.5920
274,-0.007931,12.5125,989.5970
275,-0.001772,12.5175,989.6021
276,-0.006303,12.5175,989.6071
277,-0.002235,12.5231,989.6121
278,-0.008118,12.5231,989.6171
279,-0.003054,12.5281,989.6221
280,-0.007276,12.5281,989.6271
281,-0.002446,12.5331,989.6320
282,-0.008253,12.5331,989.6370
283,-0.003222,12.5381,989.6420
284,-0.008029,12.5381,989.6470
285,-0.004377,12.5425,989.6520
286,-0.009759,12.5425,989.6570
287,-0.004209,12.5481,989.6620
288,-0.008384,12.5481,989.6671
289,-0.004302,12.5525,989.6721
290,-0.009998,12.5525,989.6771
291,-0.005696,12.5575,989.6821
292,-0.009829,12.5575,989.6871
293,-0.005214,12.5625,989.6920
294,-0.009731,12.5625,989.6970
295,-0.005069,12.5681,989.7020
296,-0.009539,12.5681,989.7070
297,-0.007126,12.5731,989.7120
298,-0.013318,12.5731,989.7170
299,-0.008744,12.5781,989.7220
300,-0.012986,12.5781,989.7271
301,-0.008726,12.5831,989.7321
302,-0.013290,12.5831,989.7371
303,-0.009334,12.5881,989.7421
304,-0.013145,12.5881,989.7471
305,-0.008913,12.5931,989.7521
306,-0.012958,12.5931,989.7570
307,-0.007805,12.5975,989.7620
308,-0.011887,12.5975,989.7670
309,-0.009862,12.6025,989.7720
310,-0.014856,12.6025,989.7770
311,-0.010423,12.6081,989.7820
312,-0.013089,12.6081,989.7870
313,-0.008408,12.6125,989.7921
314,-0.013126,12.6125,989.7971
315,-0.009698,12.6175,989.8021
316,-0.013827,12.6175,989.8071
317,-0.011148,12.6225,989.8121
318,-0.015165,12.6225,989.8170
319,-0.011569,12.6281,989.8220
320,-0.014281,12.6281,989.8270
321,-0.011994,12.6331,989.8320
322,-0.017395,12.6331,989.8370
323,-0.014304,12.6381,989.8420
324,-0.017349,12.6381,989.8470
325,-0.013851,12.6425,989.8521
326,-0.017405,12.6425,989.8571
327,-0.014155,12.6475,989.8621
328,-0.016535,12.6475,989.8671
329,-0.013645,12.6525,989.8721
330,-0.018078,12.6525,989.8771
331,-0.015375,12.6575,989.8820
332,-0.018452,12.6575,989.8870
333,-0.015866,12.6625,989.8920
334,-0.019331,12.6625,989.8970
335,-0.016708,12.6675,989.9020
336,-0.019051,12.6675,989.9070
337,-0.016881,12.6725,989.9120
338,-0.021529,12.6725,989.9171
339,-0.018953,12.6781,989.9221
340,-0.021468,12.6781,989.9271
341,-0.018410,12.6831,989.9321
342,-0.020533,12.6831,989.9371
343,-0.016521,12.6881,989.9420
344,-0.018008,12.6881,989.9470
345,-0.014403,12.6925,989.9520
346,-0.017124,12.6925,989.9570
347,-0.013290,12.6975,989.9620
348,-0.015184,12.6975,989.9670
349,-0.013276,12.7025,989.9720
350,-0.017021,12.7025,989.9771
351,-0.015067,12.7075,989.9821
352,-0.016409,12.7075,989.9871
353,-0.013079,12.7125,989.9921
354,-0.015693,12.7125,989.9971
355,-0.013117,12.7175,990.0021
356,-0.015198,12.7175,990.0070
357,-0.013968,12.7231,990.0120
358,-0.016521,12.7231,990.0170
359,-0.013061,12.7281,990.0220
360,-0.013481,12.7281,990.0270
361,-0.012462,12.7325,990.0320
362,-0.016371,12.7325,990.0370
363,-0.014936,12.7375,990.0421
364,-0.016979,12.7375,990.0471
365,-0.016610,12.7425,990.0521
366,-0.018882,12.7425,990.0571
367,-0.015894,12.7475,990.0621
368,-0.016371,12.7475,990.0670
369,-0.015389,12.7525,990.0720
370,-0.018419,12.7525,990.0770
371,-0.017204,12.7575,990.0820
372,-0.018209,12.7575,990.0870
373,-0.016208,12.7625,990.0920
374,-0.017868,12.7625,990.0970
375,-0.016797,12.7681,990.1021
376,-0.017914,12.7681,990.1071
377,-0.018270,12.7731,990.1121
378,-0.021249,12.7731,990.1171
379,-0.019874,12.7775,990.1221
380,-0.019635,12.7775,990.1271
381,-0.017283,12.7825,990.1320
382,-0.018822,12.7825,990.1370
383,-0.017849,12.7875,990.1420
384,-0.018401,12.7875,990.1470
385,-0.018943,12.7925,990.1520
386,-0.021033,12.7925,990.1570
387,-0.019654,12.7975,990.1620
388,-0.019766,12.7975,990.1671
389,-0.020304,12.8025,990.1721
390,-0.022549,12.8025,990.1771
391,-0.021697,12.8075,990.1821
392,-0.020940,12.8075,990.1871
393,-0.019977,12.8125,990.1920
394,-0.021595,12.8125,990.1970
395,-0.022156,12.8175,990.2020
396,-0.022577,12.8175,990.2070
397,-0.022600,12.8225,990.2120
398,-0.023437,12.8225,990.2170
399,-0.022436,12.8275,990.2220
400,-0.021538,12.8275,990.2271
401,-0.020935,12.8325,990.2321
402,-0.022226,12.8325,990.2371
403,-0.022717,12.8375,990.2421
404,-0.023170,12.8375,990.2471
405,-0.024209,12.8425,990.2521
406,-0.024877,12.8425,990.2570
407,-0.024354,12.8475,990.2620
408,-0.022885,12.8475,990.2670
409,-0.022563,12.8525,990.2720
410,-0.023923,12.8525,990.2770
411,-0.024615,12.8575,990.2820
412,-0.023970,12.8575,990.2870
413,-0.024489,12.8625,990.2921
414,-0.024475,12.8625,990.2971
415,-0.024475,12.8675,990.3021
416,-0.028183,12.8675,990.3080
417,-0.023690,12.8725,990.3130
418,-0.029315,12.8725,990.3181
419,-0.025293,12.8775,990.3231
420,-0.029698,12.8775,990.3281
421,-0.026219,12.8825,990.3331
422,-0.031475,12.8825,990.3381
423,-0.026982,12.8875,990.3430
424,-0.029792,12.8875,990.3480
425,-0.025022,12.8925,990.3530
426,-0.030161,12.8925,990.3580
427,-0.025906,12.8975,990.3630
428,-0.030283,12.8975,990.3680
429,-0.026832,12.9025,990.3730
430,-0.031036,12.9025,990.3781
431,-0.026397,12.9075,990.3831
432,-0.028983,12.9075,990.3881
433,-0.024620,12.9125,990.3931
434,-0.029474,12.9125,990.3981
435,-0.025476,12.9175,990.4031
436,-0.029254,12.9175,990.4080
437,-0.026116,12.9225,990.4130
438,-0.030896,12.9225,990.4180
439,-0.027052,12.9275,990.4230
440,-0.029801,12.9275,990.4280
441,-0.026107,12.9325,990.4330
442,-0.030685,12.9325,990.4380
443,-0.027108,12.9369,990.4431
444,-0.030344,12.9369,990.4481
445,-0.027477,12.9419,990.4531
446,-0.032420,12.9419,990.4581
447,-0.029263,12.9475,990.4631
448,-0.031401,12.9475,990.4680
449,-0.026874,12.9525,990.4730
450,-0.030035,12.9525,990.4780
451,-0.026308,12.9575,990.4830
452,-0.030358,12.9575,990.4880
453,-0.027720,12.9625,990.4930
454,-0.031845,12.9625,990.4980
455,-0.028001,12.9675,990.5031
456,-0.028585,12.9675,990.5081
457,-0.024611,12.9719,990.5131
458,-0.029076,12.9719,990.5181
459,-0.026584,12.9769,990.5231
460,-0.029993,12.9769,990.5281
461,-0.027159,12.9819,990.5330
462,-0.030563,12.9819,990.5380
463,-0.027000,12.9869,990.5430
464,-0.028347,12.9869,990.5480
465,-0.025602,12.9919,990.5530
466,-0.030175,12.9919,990.5580
467,-0.027061,12.9969,990.5630
468,-0.029109,12.9969,990.5681
469,-0.026397,13.0025,990.5731
470,-0.029633,13.0025,990.5781
471,-0.027243,13.0075,990.5831
472,-0.029263,13.0075,990.5881
473,-0.026664,13.0119,990.5930
474,-0.029717,13.0119,990.5980
475,-0.026841,13.0169,990.6030
476,-0.028646,13.0169,990.6080
477,-0.026523,13.0219,990.6130
478,-0.030933,13.0219,990.6180
479,-0.028777,13.0269,990.6230
480,-0.028950,13.0269,990.6281
481,-0.025766,13.0319,990.6331
482,-0.028137,13.0319,990.6381
483,-0.026303,13.0369,990.6431
484,-0.028600,13.0369,990.6481
485,-0.027150,13.0419,990.6531
486,-0.030554,13.0419,990.6580
487,-0.028123,13.0475,990.6630
488,-0.027178,13.0475,990.6680
489,-0.024246,13.0525,990.6730
490,-0.027243,13.0525,990.6780
491,-0.025761,13.0569,990.6830
492,-0.028557,13.0569,990.6880
493,-0.027192,13.0619,990.6931
494,-0.029137,13.0619,990.6981
495,-0.026748,13.0669,990.7031
496,-0.027276,13.0669,990.7081
497,-0.025976,13.0719,990.7131
498,-0.029133,13.0719,990.7180
499,-0.027033,13.0769,990.7230
500,-0.027159,13.0769,990.7280
501,-0.025336,13.0819,990.7330
502,-0.027692,13.0819,990.7380
503,-0.026383,13.0869,990.7430
504,-0.026332,13.0869,990.7480
505,-0.024498,13.0925,990.7531
506,-0.026000,13.0925,990.7581
507,-0.023559,13.0969,990.7631
508,-0.022983,13.0969,990.7681
509,-0.020374,13.1019,990.7731
510,-0.019430,13.1019,990.7781
511,-0.015969,13.1069,990.7830
512,-0.013243,13.1069,990.7880
513,-0.010975,13.1119,990.7930
514,-0.012111,13.1119,990.7980
515,-0.010634,13.1169,990.8030
516,-0.011662,13.1169,990.8080
517,-0.011125,13.1219,990.8130
518,-0.013121,13.1219,990.8181
519,-0.012195,13.1269,990.8231
520,-0.011330,13.1269,990.8281
521,-0.009937,13.1319,990.8331
522,-0.012280,13.1319,990.8381
523,-0.011906,13.1375,990.8430
524,-0.013126,13.1375,990.8480
525,-0.012775,13.1419,990.8530
526,-0.013659,13.1419,990.8580
527,-0.012429,13.1469,990.8630
528,-0.011920,13.1469,990.8680
529,-0.011092,13.1519,990.8730
530,-0.012546,13.1519,990.8781
531,-0.011980,13.1569,990.8831
532,-0.011929,13.1569,990.8881
533,-0.011667,13.1619,990.8931
534,-0.012780,13.1619,990.8981
535,-0.012705,13.1669,990.9031
536,-0.011284,13.1669,990.9080
537,-0.010713,13.1719,990.9130
538,-0.010765,13.1719,990.9180
539,-0.009885,13.1769,990.9230
540,-0.009376,13.1769,990.9280
541,-0.009979,13.1819,990.9330
542,-0.011877,13.1819,990.9380
543,-0.012598,13.1869,990.9431
544,-0.011377,13.1869,990.9481
545,-0.011083,13.1919,990.9531
546,-0.012102,13.1919,990.9581
547,-0.011952,13.1969,990.9631
548,-0.011050,13.1969,990.9680
549,-0.011447,13.2019,990.9730
550,-0.012018,13.2019,990.9780
551,-0.012771,13.2075,990.9830
552,-0.011195,13.2075,990.9880
553,-0.011812,13.2119,990.9930
554,-0.012733,13.2119,990.9980
555,-0.012397,13.2169,991.0031
556,-0.009862,13.2169,991.0081
557,-0.010180,13.2219,991.0131
558,-0.009946,13.2219,991.0181
559,-0.011204,13.2269,991.0231
560,-0.010072,13.2269,991.0281
561,-0.011036,13.2319,991.0330
562,-0.010736,13.2319,991.0380
563,-0.010690,13.2369,991.0430
564,-0.007837,13.2369,991.0480
565,-0.008534,13.2419,991.0530
566,-0.009722,13.2419,991.0580
567,-0.011592,13.2475,991.0630
568,-0.009343,13.2475,991.0681
569,-0.010456,13.2519,991.0731
570,-0.009946,13.2519,991.0781
571,-0.010774,13.2569,991.0831
572,-0.009525,13.2569,991.0881
573,-0.011307,13.2619,991.0930
574,-0.011419,13.2619,991.0980
575,-0.013182,13.2669,991.1030
576,-0.009932,13.2669,991.1080
577,-0.010900,13.2719,991.1130
578,-0.009521,13.2719,991.1180
579,-0.010587,13.2769,991.1230
580,-0.008997,13.2769,991.1281
581,-0.010886,13.2819,991.1331
582,-0.009881,13.2819,991.1381
583,-0.012261,13.2869,991.1431
584,-0.009460,13.2869,991.1481
585,-0.011036,13.2919,991.1531
586,-0.010306,13.2919,991.1580
587,-0.012902,13.2969,991.1630
588,-0.009708,13.2969,991.1680
589,-0.011616,13.3019,991.1730
590,-0.009914,13.3019,991.1780
591,-0.012191,13.3069,991.1830
592,-0.008440,13.3069,991.1880
593,-0.010246,13.3119,991.1931
594,-0.008843,13.3119,991.1981
595,-0.011251,13.3169,991.2031
596,-0.009095,13.3169,991.2081
597,-0.011915,13.3219,991.2131
598,-0.010793,13.3219,991.2180
599,-0.013206,13.3269,991.2230
600,-0.009544,13.3269,991.2280
601,-0.011644,13.3319,991.2330
602,-0.009806,13.3319,991.2380
603,-0.012041,13.3369,991.2430
604,-0.009661,13.3369,991.2480
605,-0.012981,13.3419,991.2531
606,-0.010970,13.3419,991.2581
607,-0.013734,13.3469,991.2631
608,-0.009292,13.3469,991.2681
609,-0.011803,13.3519,991.2731
610,-0.010512,13.3519,991.2781
611,-0.013037,13.3569,991.2830
612,-0.008922,13.3569,991.2880
613,-0.011653,13.3619,991.2930
614,-0.008824,13.3619,991.2980
615,-0.011985,13.3669,991.3030
616,-0.007842,13.3669,991.3080
617,-0.010648,13.3719,991.3130
618,-0.008483,13.3719,991.3181
619,-0.011924,13.3769,991.3231
620,-0.008698,13.3769,991.3281
621,-0.011863,13.3819,991.3331
622,-0.008749,13.3819,991.3381
623,-0.012579,13.3875,991.3430
624,-0.008585,13.3875,991.3480
625,-0.012284,13.3919,991.3530
626,-0.010306,13.3919,991.3580
627,-0.013682,13.3969,991.3630
628,-0.009862,13.3969,991.3680
629,-0.013795,13.4019,991.3730
630,-0.011718,13.4019,991.3781
631,-0.015964,13.4069,991.3831
632,-0.010348,13.4069,991.3881
633,-0.012799,13.4119,991.3931
634,-0.008497,13.4119,991.3981
635,-0.011718,13.4169,991.4031
636,-0.006968,13.4169,991.4080
637,-0.011742,13.4219,991.4130
638,-0.009834,13.4219,991.4180
639,-0.014632,13.4269,991.4230
640,-0.009366,13.4269,991.4280
641,-0.012565,13.4319,991.4330
642,-0.008642,13.4319,991.4380
643,-0.012308,13.4369,991.4431
644,-0.007524,13.4369,991.4481
645,-0.011648,13.4419,991.4531
646,-0.009282,13.4419,991.4581
647,-0.014304,13.4469,991.4631
648,-0.008632,13.4469,991.4680
649,-0.012691,13.4519,991.4730
650,-0.009343,13.4519,991.4780
651,-0.013421,13.4569,991.4830
652,-0.008104,13.4569,991.4880
653,-0.012672,13.4619,991.4930
654,-0.008983,13.4619,991.4980
655,-0.013332,13.4669,991.5031
656,-0.006869,13.4669,991.5081
657,-0.011471,13.4719,991.5131
658,-0.008090,13.4719,991.5181
659,-0.012556,13.4769,991.5231
660,-0.007010,13.4769,991.5281
661,-0.011709,13.4819,991.5330
662,-0.008539,13.4819,991.5380
663,-0.013996,13.4869,991.5430
664,-0.007468,13.4869,991.5480
665,-0.011817,13.4919,991.5530
666,-0.007753,13.4919,991.5580
667,-0.012953,13.4969,991.5630
668,-0.008347,13.4969,991.5681
669,-0.013935,13.5019,991.5731
670,-0.010526,13.5019,991.5781
671,-0.015558,13.5069,991.5831
672,-0.008506,13.5069,991.5881
673,-0.013140,13.5119,991.5930
674,-0.009165,13.5119,991.5980
675,-0.014159,13.5169,991.6030
676,-0.008202,13.5169,991.6080
677,-0.012747,13.5219,991.6130
678,-0.008225,13.5219,991.6180
679,-0.013626,13.5275,991.6230
680,-0.007589,13.5275,991.6281
681,-0.012902,13.5319,991.6331
682,-0.008417,13.5319,991.6381
683,-0.013313,13.5369,991.6431
684,-0.007594,13.5369,991.6481
685,-0.012574,13.5419,991.6531
686,-0.007304,13.5419,991.6580
687,-0.012850,13.5469,991.6630
688,-0.006042,13.5469,991.6680
689,-0.011877,13.5519,991.6730
690,-0.008525,13.5519,991.6780
691,-0.015174,13.5569,991.6830
692,-0.010288,13.5569,991.6880
693,-0.015894,13.5619,991.6931
694,-0.010222,13.5619,991.6981
695,-0.015731,13.5669,991.7031
696,-0.008305,13.5669,991.7081
697,-0.013832,13.5719,991.7131
698,-0.009062,13.5719,991.7180
699,-0.015249,13.5769,991.7230
700,-0.009357,13.5769,991.7280
701,-0.014823,13.5819,991.7330
702,-0.008791,13.5819,991.7380
703,-0.014697,13.5869,991.7430
704,-0.007201,13.5869,991.7480
705,-0.013252,13.5919,991.7531
706,-0.008183,13.5919,991.7581
707,-0.014038,13.5969,991.7631
708,-0.006523,13.5969,991.7681
709,-0.012195,13.6019,991.7731
710,-0.006925,13.6019,991.7781
711,-0.013425,13.6069,991.7830
712,-0.006607,13.6069,991.7880
713,-0.012827,13.6119,991.7930
714,-0.007865,13.6119,991.7980
715,-0.013982,13.6169,991.8030
716,-0.007229,13.6169,991.8080
717,-0.013926,13.6219,991.8130
718,-0.008651,13.6219,991.8181
719,-0.015726,13.6269,991.8231
720,-0.008300,13.6269,991.8281
721,-0.014220,13.6319,991.8331
722,-0.008375,13.6319,991.8381
723,-0.014707,13.6369,991.8430
724,-0.008034,13.6369,991.8480
725,-0.014356,13.6419,991.8530
726,-0.008347,13.6419,991.8580
727,-0.015123,13.6469,991.8630
728,-0.006907,13.6469,991.8680
729,-0.013051,13.6519,991.8730
730,-0.007253,13.6519,991.8781
731,-0.014178,13.6569,991.8831
732,-0.006860,13.6569,991.8881
733,-0.013393,13.6619,991.8931
734,-0.007346,13.6619,991.8981
735,-0.014295,13.6619,991.9031
736,-0.006299,13.6675,991.9080
737,-0.013308,13.6719,991.9130
738,-0.007646,13.6719,991.9180
739,-0.014632,13.6769,991.9230
740,-0.007393,13.6769,991.9280
741,-0.014113,13.6819,991.9330
742,-0.007388,13.6819,991.9380
743,-0.014117,13.6869,991.9431
744,-0.005883,13.6869,991.9481
745,-0.012990,13.6919,991.9531
746,-0.006837,13.6919,991.9581
747,-0.014347,13.6969,991.9631
748,-0.006771,13.6969,991.9680
749,-0.013458,13.7019,991.9730
750,-0.006944,13.7019,991.9780
751,-0.013884,13.7069,991.9830
752,-0.004742,13.7069,991.9880
753,-0.012018,13.7069,991.9930
754,-0.007108,13.7119,991.9980
755,-0.015553,13.7169,992.0031
756,-0.007842,13.7169,992.0081
757,-0.014679,13.7219,992.0131
758,-0.007276,13.7219,992.0181
759,-0.014468,13.7269,992.0231
760,-0.006084,13.7269,992.0281
761,-0.013107,13.7319,992.0330
762,-0.006406,13.7319,992.0380
763,-0.014580,13.7369,992.0430
764,-0.007978,13.7369,992.0480
765,-0.015586,13.7419,992.0530
766,-0.008286,13.7419,992.0580
767,-0.015015,13.7469,992.0630
768,-0.005565,13.7469,992.0681
769,-0.013014,13.7519,992.0731
770,-0.007056,13.7519,992.0781
771,-0.015413,13.7519,992.0831
772,-0.007734,13.7569,992.0881
773,-0.014613,13.7569,992.0930
774,-0.007641,13.7619,992.0980
775,-0.015216,13.7669,992.1030
776,-0.006350,13.7669,992.1080
777,-0.013968,13.7719,992.1130
778,-0.007903,13.7719,992.1180
779,-0.015534,13.7769,992.1230
780,-0.006533,13.7769,992.1281
781,-0.013355,13.7819,992.1331
782,-0.006056,13.7819,992.1381
783,-0.014356,13.7869,992.1431
784,-0.005462,13.7869,992.1481
785,-0.012144,13.7919,992.1531
786,-0.004101,13.7919,992.1580
787,-0.011920,13.7969,992.1630
788,-0.004709,13.7969,992.1680
789,-0.013383,13.8019,992.1730
790,-0.007814,13.8019,992.1780
791,-0.016058,13.8019,992.1830
792,-0.006434,13.8069,992.1880
793,-0.013075,13.8069,992.1931
794,-0.005724,13.8119,992.1981
795,-0.014487,13.8119,992.2031
796,-0.007791,13.8169,992.2081
797,-0.015866,13.8219,992.2131
798,-0.007982,13.8219,992.2180
799,-0.015151,13.8269,992.2230
800,-0.003914,13.8269,992.2280
801,-0.010442,13.8319,992.2330
802,-0.004031,13.8319,992.2380
803,-0.013617,13.8369,992.2430
804,-0.007211,13.8369,992.2480
805,-0.015492,13.8419,992.2531
806,-0.008048,13.8419,992.2581
807,-0.016128,13.8469,992.2631
808,-0.006130,13.8469,992.2681
809,-0.013668,13.8512,992.2731
810,-0.007290,13.8512,992.2781
811,-0.015286,13.8512,992.2830
812,-0.006275,13.8569,992.2880
813,-0.013977,13.8569,992.2930
814,-0.006715,13.8619,992.2980
815,-0.014870,13.8619,992.3030
816,-0.004859,13.8669,992.3080
817,-0.012036,13.8712,992.3130
818,-0.003746,13.8712,992.3181
819,-0.011957,13.8762,992.3231
820,-0.003671,13.8762,992.3281
821,-0.012046,13.8812,992.3331
822,-0.006257,13.8812,992.3381
823,-0.014950,13.8869,992.3430
824,-0.004980,13.8869,992.3480
825,-0.011980,13.8912,992.3530
826,-0.004227,13.8912,992.3580
827,-0.012495,13.8962,992.3630
828,-0.004629,13.8962,992.3680
829,-0.012972,13.8962,992.3730
830,-0.005621,13.9012,992.3781
831,-0.014075,13.9012,992.3831
832,-0.004732,13.9069,992.3881
833,-0.012579,13.9069,992.3931
834,-0.004620,13.9119,992.3981
835,-0.013173,13.9119,992.4031
836,-0.005532,13.9169,992.4080
837,-0.014024,13.9212,992.4130
838,-0.007052,13.9212,992.4180
839,-0.015852,13.9269,992.4230
840,-0.005845,13.9269,992.4280
841,-0.012485,13.9312,992.4330
842,-0.003947,13.9312,992.4380
843,-0.012499,13.9362,992.4431
844,-0.004868,13.9362,992.4481
845,-0.013477,13.9412,992.4531
846,-0.006851,13.9412,992.4581
847,-0.015062,13.9412,992.4631
848,-0.004999,13.9469,992.4680
849,-0.012570,13.9469,992.4730
850,-0.005102,13.9519,992.4780
851,-0.013650,13.9519,992.4830
852,-0.005541,13.9569,992.4880
853,-0.013851,13.9569,992.4930
854,-0.007000,13.9612,992.4980
855,-0.016007,13.9612,992.5031
856,-0.006921,13.9662,992.5081
857,-0.013542,13.9662,992.5131
858,-0.003891,13.9712,992.5181
859,-0.011536,13.9712,992.5231
860,-0.003652,13.9762,992.5281
861,-0.012513,13.9762,992.5330
862,-0.006416,13.9812,992.5380
863,-0.014987,13.9812,992.5430
864,-0.005565,13.9862,992.5480
865,-0.013075,13.9862,992.5530
866,-0.004742,13.9912,992.5580
867,-0.012925,13.9912,992.5630
868,-0.004578,13.9969,992.5681
869,-0.012836,13.9969,992.5731
870,-0.006392,14.0012,992.5781
871,-0.014940,14.0012,992.5831
872,-0.004966,14.0069,992.5881
873,-0.012668,14.0069,992.5930
874,-0.004470,14.0112,992.5980
875,-0.012948,14.0112,992.6030
876,-0.005476,14.0162,992.6080
877,-0.014473,14.0162,992.6130
878,-0.007805,14.0212,992.6180
879,-0.016282,14.0212,992.6230
880,-0.006070,14.0262,992.6281
881,-0.013140,14.0262,992.6331
882,-0.004788,14.0312,992.6381
883,-0.013285,14.0312,992.6431
884,-0.004527,14.0362,992.6481
885,-0.012509,14.0362,992.6531
886,-0.005864,14.0412,992.6580
887,-0.014838,14.0412,992.6630
888,-0.004910,14.0469,992.6680
889,-0.012298,14.0469,992.6730
890,-0.004007,14.0512,992.6780
891,-0.012228,14.0512,992.6830
892,-0.003797,14.0562,992.6880
893,-0.012481,14.0562,992.6931
894,-0.006659,14.0612,992.6981
895,-0.015230,14.0612,992.7031
896,-0.004919,14.0662,992.7081
897,-0.011461,14.0662,992.7131
898,-0.003540,14.0712,992.7180
899,-0.012055,14.0712,992.7230
900,-0.004578,14.0762,992.7280
901,-0.013018,14.0762,992.7330
902,-0.006332,14.0812,992.7380
903,-0.015207,14.0812,992.7430
904,-0.005728,14.0862,992.7480
905,-0.012513,14.0862,992.7531
906,-0.004059,14.0912,992.7581
907,-0.012588,14.0912,992.7631
908,-0.004349,14.0962,992.7681
909,-0.012546,14.0962,992.7731
910,-0.006149,14.1012,992.7781
911,-0.014959,14.1012,992.7830
912,-0.006766,14.1062,992.7880
913,-0.014515,14.1062,992.7930
914,-0.006766,14.1112,992.7980
915,-0.014777,14.1112,992.8030
916,-0.005714,14.1162,992.8080
917,-0.013117,14.1162,992.8130
918,-0.006023,14.1212,992.8181
919,-0.014506,14.1212,992.8231
920,-0.005574,14.1262,992.8281
921,-0.012504,14.1262,992.8331
922,-0.004592,14.1312,992.8381
923,-0.013051,14.1312,992.8430
924,-0.005499,14.1362,992.8480
925,-0.013444,14.1362,992.8530
926,-0.006963,14.1412,992.8580
927,-0.015394,14.1412,992.8630
928,-0.005471,14.1462,992.8680
929,-0.011761,14.1462,992.8730
930,-0.003909,14.1512,992.8781
931,-0.013257,14.1512,992.8831
932,-0.005934,14.1562,992.8881
933,-0.013771,14.1562,992.8931
934,-0.007332,14.1612,992.8981
935,-0.014964,14.1612,992.9031
936,-0.005878,14.1662,992.9080
937,-0.012874,14.1662,992.9130
938,-0.005345,14.1712,992.9180
939,-0.013561,14.1712,992.9230
940,-0.004971,14.1762,992.9280
941,-0.012004,14.1762,992.9330
942,-0.004975,14.1812,992.9380
943,-0.012972,14.1812,992.9431
944,-0.004947,14.1862,992.9481
945,-0.012481,14.1862,992.9531
946,-0.005336,14.1912,992.9581
947,-0.013191,14.1912,992.9631
948,-0.005153,14.1962,992.9680
949,-0.011821,14.1962,992.9730
950,-0.005134,14.2012,992.9780
951,-0.013729,14.2012,992.9830
952,-0.006584,14.2062,992.9880
953,-0.013767,14.2062,992.9930
954,-0.006009,14.2112,992.9980
955,-0.013056,14.2112,993.0031
956,-0.003741,14.2162,993.0081
957,-0.010676,14.2162,993.0131
958,-0.004793,14.2212,993.0181
959,-0.013407,14.2212,993.0231
960,-0.005228,14.2262,993.0281
961,-0.011550,14.2262,993.0330
962,-0.003993,14.2312,993.0380
963,-0.011541,14.2312,993.0430
964,-0.003750,14.2362,993.0480
965,-0.011073,14.2362,993.0530
966,-0.005303,14.2412,993.0580
967,-0.013491,14.2412,993.0630
968,-0.005705,14.2462,993.0681
969,-0.011920,14.2462,993.0731
970,-0.003942,14.2512,993.0781
971,-0.010975,14.2512,993.0831
972,-0.003867,14.2562,993.0881
973,-0.010952,14.2562,993.0930
974,-0.005251,14.2612,993.0980
975,-0.012939,14.2612,993.1030
976,-0.005588,14.2662,993.1080
977,-0.012331,14.2662,993.1130
978,-0.005841,14.2712,993.1180
979,-0.012850,14.2712,993.1230
980,-0.004859,14.2762,993.1281
981,-0.011223,14.2762,993.1331
982,-0.004859,14.2812,993.1381
983,-0.012733,14.2812,993.1431
984,-0.005438,14.2862,993.1481
985,-0.011251,14.2862,993.1531
986,-0.004419,14.2912,993.1580
987,-0.011143,14.2912,993.1630
988,-0.003587,14.2962,993.1680
989,-0.009871,14.2962,993.1730
990,-0.004120,14.3012,993.1780
991,-0.011770,14.3012,993.1830
992,-0.005897,14.3062,993.1880
993,-0.012186,14.3062,993.1931
994,-0.005915,14.3112,993.1981
995,-0.011999,14.3112,993.2031
996,-0.005158,14.3162,993.2081
997,-0.011157,14.3162,993.2131
998,-0.005457,14.3212,993.2180
999,-0.012383,14.3212,993.2230
1000,-0.005668,14.3262,993.2280
1001,-0.011368,14.3262,993.2330
1002,-0.005537,14.3312,993.2380
1003,-0.011845,14.3312,993.2430
1004,-0.004611,14.3362,993.2480
1005,-0.009764,14.3362,993.2531
1006,-0.004742,14.3412,993.2581
1007,-0.011821,14.3412,993.2631
1008,-0.006205,14.3462,993.2681
1009,-0.011840,14.3462,993.2731
1010,-0.005523,14.3512,993.2781
1011,-0.011845,14.3512,993.2830
1012,-0.006107,14.3562,993.2880
1013,-0.012359,14.3562,993.2930
1014,-0.007580,14.3612,993.2980
1015,-0.013912,14.3612,993.3030
1016,-0.006650,14.3669,993.3080
1017,-0.011386,14.3669,993.3130
1018,-0.005289,14.3712,993.3181
1019,-0.011779,14.3712,993.3231
1020,-0.005892,14.3762,993.3281
1021,-0.011218,14.3762,993.3331
1022,-0.006215,14.3812,993.3381
1023,-0.012682,14.3812,993.3430
1024,-0.006883,14.3862,993.3480
1025,-0.011901,14.3862,993.3530
1026,-0.006883,14.3912,993.3580
1027,-0.012874,14.3912,993.3630
1028,-0.006734,14.3962,993.3680
1029,-0.011578,14.3962,993.3730
1030,-0.006182,14.4012,993.3781
1031,-0.011943,14.4012,993.3831
1032,-0.006275,14.4062,993.3881
1033,-0.010741,14.4062,993.3931
1034,-0.005373,14.4112,993.3981
1035,-0.010793,14.4112,993.4031
1036,-0.004905,14.4162,993.4080
1037,-0.009535,14.4162,993.4130
1038,-0.005780,14.4212,993.4180
1039,-0.011386,14.4212,993.4230
1040,-0.006201,14.4262,993.4280
1041,-0.010648,14.4262,993.4330
1042,-0.005985,14.4312,993.4380
1043,-0.011489,14.4312,993.4431
1044,-0.005789,14.4362,993.4481
1045,-0.010087,14.4362,993.4531
1046,-0.006215,14.4412,993.4581
1047,-0.011770,14.4412,993.4631
1048,-0.006014,14.4462,993.4680
1049,-0.009563,14.4462,993.4730
1050,-0.004531,14.4512,993.4780
1051,-0.010143,14.4512,993.4830
1052,-0.005864,14.4562,993.4880
1053,-0.010531,14.4562,993.4930
1054,-0.005780,14.4612,993.4980
1055,-0.010115,14.4612,993.5031
1056,-0.004728,14.4669,993.5081
1057,-0.008366,14.4669,993.5131
1058,-0.004241,14.4712,993.5181
1059,-0.010040,14.4712,993.5231
1060,-0.006598,14.4762,993.5281
1061,-0.011176,14.4762,993.5330
1062,-0.006846,14.4812,993.5380
1063,-0.011213,14.4812,993.5430
1064,-0.005373,14.4862,993.5480
1065,-0.009320,14.4862,993.5530
1066,-0.006140,14.4912,993.5580
1067,-0.011569,14.4912,993.5630
1068,-0.006813,14.4962,993.5681
1069,-0.010096,14.4962,993.5731
1070,-0.006084,14.5012,993.5781
1071,-0.010966,14.5012,993.5831
1072,-0.006682,14.5062,993.5881
1073,-0.010189,14.5062,993.5930
1074,-0.006710,14.5112,993.5980
1075,-0.011690,14.5112,993.6030
1076,-0.006977,14.5162,993.6080
1077,-0.010227,14.5162,993.6130
1078,-0.006182,14.5212,993.6180
1079,-0.010980,14.5212,993.6230
1080,-0.008113,14.5262,993.6281
1081,-0.011583,14.5262,993.6331
1082,-0.007112,14.5312,993.6381
1083,-0.010765,14.5312,993.6431
1084,-0.005836,14.5362,993.6481
1085,-0.008899,14.5362,993.6531
1086,-0.005761,14.5412,993.6580
1087,-0.009483,14.5412,993.6630
1088,-0.006196,14.5462,993.6680
1089,-0.009502,14.5462,993.6730
1090,-0.005742,14.5512,993.6780
1091,-0.009806,14.5512,993.6830
1092,-0.006523,14.5562,993.6880
1093,-0.009787,14.5562,993.6931
1094,-0.006710,14.5612,993.6981
1095,-0.009881,14.5612,993.7031
1096,-0.006682,14.5669,993.7081
1097,-0.009147,14.5669,993.7131
1098,-0.006584,14.5712,993.7180
1099,-0.011115,14.5712,993.7230
1100,-0.008123,14.5762,993.7280
1101,-0.010278,14.5762,993.7330
1102,-0.007753,14.5812,993.7380
1103,-0.010835,14.5812,993.7430
1104,-0.007075,14.5862,993.7480
1105,-0.009156,14.5862,993.7531
1106,-0.006925,14.5912,993.7581
1107,-0.010096,14.5912,993.7631
1108,-0.006766,14.5962,993.7681
1109,-0.009002,14.5962,993.7731
1110,-0.006388,14.6012,993.7781
1111,-0.009142,14.6012,993.7830
1112,-0.006448,14.6069,993.7880
1113,-0.008235,14.6069,993.7930
1114,-0.005443,14.6112,993.7980
1115,-0.009067,14.6112,993.8030
1116,-0.008314,14.6162,993.8080
1117,-0.011560,14.6162,993.8130
1118,-0.009745,14.6212,993.8181
1119,-0.012186,14.6212,993.8231
1120,-0.008847,14.6262,993.8281
1121,-0.009605,14.6262,993.8331
1122,-0.006944,14.6312,993.8381
1123,-0.010648,14.6312,993.8430
1124,-0.008305,14.6362,993.8480
1125,-0.009712,14.6362,993.8530
1126,-0.007987,14.6412,993.8580
1127,-0.010316,14.6412,993.8630
1128,-0.007580,14.6462,993.8680
1129,-0.008328,14.6462,993.8730
1130,-0.006547,14.6512,993.8781
1131,-0.009390,14.6512,993.8831
1132,-0.007935,14.6562,993.8881
1133,-0.009652,14.6562,993.8931
1134,-0.008988,14.6612,993.8981
1135,-0.011466,14.6612,993.9031
1136,-0.009366,14.6662,993.9080
1137,-0.009446,14.6662,993.9130
1138,-0.006916,14.6712,993.9180
1139,-0.009343,14.6712,993.9230
1140,-0.008408,14.6762,993.9280
1141,-0.010409,14.6762,993.9330
1142,-0.009811,14.6812,993.9380
1143,-0.011630,14.6812,993.9431
1144,-0.008520,14.6862,993.9481
1145,-0.008515,14.6862,993.9531
1146,-0.007276,14.6912,993.9581
1147,-0.009904,14.6912,993.9631
1148,-0.008955,14.6962,993.9680
1149,-0.010119,14.6962,993.9730
1150,-0.009044,14.7012,993.9780
1151,-0.010751,14.7012,993.9830
1152,-0.008137,14.7062,993.9880
1153,-0.007664,14.7062,993.9930
1154,-0.006275,14.7112,993.9980
1155,-0.008324,14.7112,994.0031
1156,-0.008230,14.7162,994.0081
1157,-0.008871,14.7162,994.0131
1158,-0.008314,14.7212,994.0181
1159,-0.010110,14.7212,994.0231
1160,-0.008338,14.7262,994.0281
1161,-0.007285,14.7262,994.0330
1162,-0.006659,14.7312,994.0380
1163,-0.008151,14.7312,994.0430
1164,-0.006654,14.7362,994.0480
1165,-0.006986,14.7362,994.0530
1166,-0.007136,14.7412,994.0580
1167,-0.008983,14.7412,994.0630
1168,-0.008642,14.7469,994.0681
1169,-0.007893,14.7469,994.0731
1170,-0.007547,14.7512,994.0781
1171,-0.009002,14.7512,994.0831
1172,-0.009736,14.7562,994.0881
1173,-0.009890,14.7562,994.0930
1174,-0.009652,14.7612,994.0980
1175,-0.010348,14.7612,994.1030
1176,-0.009792,14.7662,994.1080
1177,-0.008955,14.7662,994.1130
1178,-0.008777,14.7712,994.1180
1179,-0.009801,14.7712,994.1230
1180,-0.010517,14.7762,994.1281
1181,-0.010147,14.7762,994.1331
1182,-0.009605,14.7812,994.1381
1183,-0.009376,14.7812,994.1431
1184,-0.009217,14.7862,994.1481
1185,-0.007996,14.7862,994.1531
1186,-0.008160,14.7912,994.1580
1187,-0.008712,14.7912,994.1630
1188,-0.009843,14.7962,994.1680
1189,-0.008955,14.7962,994.1730
1190,-0.009352,14.8012,994.1780
1191,-0.009109,14.8012,994.1830
1192,-0.009759,14.8062,994.1880
1193,-0.008211,14.8062,994.1931
1194,-0.008431,14.8112,994.1981
1195,-0.008506,14.8112,994.2031
1196,-0.009619,14.8162,994.2081
1197,-0.008922,14.8162,994.2131
1198,-0.010358,14.8212,994.2180
1199,-0.009380,14.8212,994.2230
1200,-0.009726,14.8262,994.2280
1201,-0.007416,14.8262,994.2330
1202,-0.007823,14.8312,994.2380
1203,-0.007379,14.8312,994.2430
1204,-0.008501,14.8362,994.2480
1205,-0.007529,14.8362,994.2531
1206,-0.010030,14.8412,994.2581
1207,-0.008969,14.8412,994.2631
1208,-0.009380,14.8462,994.2681
1209,-0.006883,14.8462,994.2731
1210,-0.007290,14.8512,994.2781
1211,-0.006944,14.8512,994.2830
1212,-0.009511,14.8562,994.2880
1213,-0.008815,14.8562,994.2930
1214,-0.011330,14.8612,994.2980
1215,-0.010386,14.8612,994.3030
1216,-0.011302,14.8662,994.3080
1217,-0.007697,14.8662,994.3130
1218,-0.007926,14.8712,994.3181
1219,-0.007552,14.8712,994.3231
1220,-0.010002,14.8762,994.3281
1221,-0.008356,14.8762,994.3331
1222,-0.010905,14.8812,994.3381
1223,-0.009189,14.8812,994.3430
1224,-0.010264,14.8862,994.3480
1225,-0.007098,14.8862,994.3530
1226,-0.007819,14.8912,994.3580
1227,-0.006701,14.8912,994.3630
1228,-0.009605,14.8962,994.3680
1229,-0.007688,14.8962,994.3730
1230,-0.010376,14.9012,994.3781
1231,-0.008707,14.9012,994.3831
1232,-0.010330,14.9062,994.3881
1233,-0.006668,14.9062,994.3931
1234,-0.007814,14.9112,994.3981
1235,-0.005495,14.9112,994.4031
1236,-0.007954,14.9162,994.4080
1237,-0.006575,14.9162,994.4130
1238,-0.010610,14.9212,994.4180
1239,-0.009151,14.9212,994.4230
1240,-0.011555,14.9262,994.4280
1241,-0.007089,14.9262,994.4330
1242,-0.009011,14.9306,994.4380
1243,-0.007524,14.9306,994.4431
1244,-0.010722,14.9362,994.4481
1245,-0.007964,14.9362,994.4531
1246,-0.010891,14.9412,994.4581
1247,-0.008824,14.9412,994.4631
1248,-0.011648,14.9462,994.4680
1249,-0.007398,14.9462,994.4730
1250,-0.009605,14.9506,994.4780
1251,-0.007416,14.9506,994.4830
1252,-0.010765,14.9562,994.4880
1253,-0.007487,14.9562,994.4930
1254,-0.010928,14.9606,994.4980
1255,-0.008576,14.9606,994.5031
1256,-0.010994,14.9662,994.5081
1257,-0.006654,14.9662,994.5131
1258,-0.009937,14.9706,994.5181
1259,-0.007776,14.9706,994.5231
1260,-0.011966,14.9762,994.5281
1261,-0.008969,14.9762,994.5330
1262,-0.012663,14.9812,994.5380
1263,-0.010091,14.9812,994.5430
1264,-0.013234,14.9862,994.5480
1265,-0.007515,14.9862,994.5530
1266,-0.009334,14.9906,994.5580
1267,-0.006430,14.9906,994.5630
1268,-0.010175,14.9962,994.5681
1269,-0.006201,14.9962,994.5731
1270,-0.009876,15.0006,994.5781
1271,-0.007248,15.0006,994.5831
1272,-0.011415,15.0062,994.5881
1273,-0.006757,15.0062,994.5930
1274,-0.009956,15.0106,994.5980
1275,-0.006715,15.0106,994.6030
1276,-0.010390,15.0156,994.6080
1277,-0.006252,15.0156,994.6130
1278,-0.010741,15.0206,994.6180
1279,-0.007996,15.0206,994.6230
1291,-0.005719,15.0506,994.6830
1292,-0.011068,15.0556,994.6880
1293,-0.007070,15.0556,994.6931
1294,-0.011807,15.0606,994.6981
1295,-0.008029,15.0606,994.7031
1296,-0.011966,15.0662,994.7081
1297,-0.005841,15.0662,994.7131
1298,-0.009231,15.0706,994.7180
1299,-0.005929,15.0706,994.7230
1300,-0.011508,15.0756,994.7280
1301,-0.006986,15.0756,994.7330
1302,-0.011185,15.0806,994.7380
1303,-0.007253,15.0806,994.7430
1304,-0.012041,15.0862,994.7480
1305,-0.006093,15.0862,994.7531
1306,-0.009694,15.0906,994.7581
1307,-0.005710,15.0906,994.7631
1308,-0.010264,15.0956,994.7681
1309,-0.004742,15.0956,994.7731
1310,-0.010699,15.1006,994.7781
1311,-0.007192,15.1006,994.7830
1312,-0.012888,15.1062,994.7880
1313,-0.006402,15.1062,994.7930
1314,-0.009755,15.1106,994.7980
1315,-0.004676,15.1106,994.8030
1316,-0.008866,15.1156,994.8080
1317,-0.003989,15.1156,994.8130
1318,-0.010765,15.1206,994.8181
1319,-0.007094,15.1206,994.8231
1363,-0.004368,15.2306,995.0430
1364,-0.011826,15.2356,995.0480
1365,-0.005228,15.2356,995.0530
1366,-0.011966,15.2406,995.0580
1367,-0.006023,15.2406,995.0630
1368,-0.012509,15.2462,995.0681
1369,-0.004606,15.2462,995.0731
1370,-0.010877,15.2506,995.0781
1371,-0.004938,15.2506,995.0831
1372,-0.012612,15.2556,995.0881
1373,-0.005499,15.2556,995.0930
1374,-0.011761,15.2606,995.0980
1375,-0.005504,15.2606,995.1030
1376,-0.012719,15.2662,995.1080
1377,-0.005163,15.2662,995.1130
1378,-0.011831,15.2706,995.1180
1379,-0.004830,15.2706,995.1230
1380,-0.010704,15.2756,995.1281
1381,-0.002923,15.2756,995.1331
1382,-0.010166,15.2806,995.1381
1383,-0.005237,15.2806,995.1431
1384,-0.014847,15.2862,995.1481
1385,-0.007370,15.2862,995.1531
1386,-0.013047,15.2906,995.1580
1387,-0.006130,15.2906,995.1630
1388,-0.013023,15.2956,995.1680
1389,-0.005251,15.2956,995.1730
1390,-0.012429,15.3006,995.1780
1391,-0.006000,15.3006,995.1830
1436,-0.013972,15.4162,995.4080
1437,-0.005967,15.4162,995.4130
1438,-0.013631,15.4206,995.4180
1439,-0.006275,15.4206,995.4230
1440,-0.014487,15.4262,995.4280
1441,-0.006154,15.4262,995.4330
1442,-0.013308,15.4306,995.4380
1443,-0.005780,15.4306,995.4431
1444,-0.013668,15.4362,995.4481
1445,-0.005995,15.4362,995.4531
1446,-0.013486,15.4406,995.4581
1447,-0.006205,15.4406,995.4631
1448,-0.014987,15.4462,995.4680
1449,-0.006509,15.4462,995.4730
1450,-0.013958,15.4506,995.4780
1451,-0.006631,15.4506,995.4830
1452,-0.015371,15.4562,995.4880
1453,-0.007220,15.4562,995.4930
1454,-0.013935,15.4612,995.4980
1455,-0.005971,15.4612,995.5031
1456,-0.014599,15.4662,995.5081
1457,-0.006065,15.4662,995.5131
1458,-0.013668,15.4706,995.5181
1459,-0.006448,15.4706,995.5231
1460,-0.014664,15.4762,995.5281
1461,-0.006224,15.4762,995.5330
1462,-0.013248,15.4806,995.5380
1463,-0.005878,15.4806,995.5430
1464,-0.014823,15.4862,995.5480
1509,-0.006149,15.5962,995.7731
1510,-0.013701,15.6012,995.7781
1511,-0.006018,15.6012,995.7830
1512,-0.015291,15.6062,995.7880
1513,-0.006491,15.6062,995.7930
1514,-0.013552,15.6112,995.7980
1515,-0.005396,15.6112,995.8030
1516,-0.013299,15.6162,995.8080
1517,-0.005013,15.6162,995.8130
1518,-0.013047,15.6212,995.8181
1519,-0.005845,15.6212,995.8231
1520,-0.014954,15.6262,995.8281
1521,-0.006565,15.6262,995.8331
1522,-0.013977,15.6312,995.8381
1523,-0.005705,15.6312,995.8430
1524,-0.013711,15.6362,995.8480
1525,-0.004611,15.6362,995.8530
1526,-0.011854,15.6412,995.8580
1527,-0.004592,15.6412,995.8630
1528,-0.013673,15.6462,995.8680
1529,-0.005485,15.6462,995.8730
1530,-0.013921,15.6512,995.8781
1531,-0.006088,15.6512,995.8831
1532,-0.014828,15.6562,995.8881
1533,-0.006439,15.6562,995.8931
1534,-0.014178,15.6612,995.8981
1535,-0.006584,15.6612,995.9031
1536,-0.014548,15.6662,995.9080
1537,-0.005092,15.6662,995.9130
1538,-0.012130,15.6712,995.9180
1581,-0.007870,15.7762,996.1331
1582,-0.014805,15.7806,996.1381
1583,-0.007075,15.7806,996.1431
1584,-0.013968,15.7862,996.1481
1585,-0.005682,15.7862,996.1531
1586,-0.013056,15.7906,996.1580
1587,-0.006785,15.7906,996.1630
1588,-0.015198,15.7962,996.1680
1589,-0.007753,15.7962,996.1730
1590,-0.014618,15.8012,996.1780
1591,-0.007384,15.8012,996.1830
1592,-0.014721,15.8062,996.1880
1593,-0.006406,15.8062,996.1931
1594,-0.012443,15.8106,996.1981
1595,-0.005406,15.8106,996.2031
1596,-0.013664,15.8162,996.2081
1597,-0.006743,15.8162,996.2131
1598,-0.014057,15.8206,996.2180
1599,-0.007744,15.8206,996.2230
1600,-0.016381,15.8262,996.2280
1601,-0.008810,15.8262,996.2330
1602,-0.014281,15.8306,996.2380
1603,-0.006406,15.8306,996.2430
1604,-0.013561,15.8362,996.2480
1605,-0.006631,15.8362,996.2531
1606,-0.013926,15.8406,996.2581
1607,-0.008090,15.8406,996.2631
1608,-0.016002,15.8462,996.2681
1609,-0.007879,15.8462,996.2731
1653,-0.008239,15.9556,996.4930
1654,-0.013626,15.9606,996.4980
1655,-0.008179,15.9606,996.5031
1656,-0.014702,15.9662,996.5081
1657,-0.008585,15.9662,996.5131
1658,-0.013308,15.9706,996.5181
1659,-0.007739,15.9706,996.5231
1660,-0.014721,15.9756,996.5281
1661,-0.008992,15.9756,996.5330
1662,-0.014487,15.9806,996.5380
1663,-0.009105,15.9806,996.5430
1664,-0.015048,15.9862,996.5480
1665,-0.007959,15.9862,996.5530
1666,-0.011545,15.9906,996.5580
1667,-0.006149,15.9906,996.5630
1668,-0.013813,15.9956,996.5681
1669,-0.008665,15.9956,996.5731
1670,-0.014496,16.0006,996.5781
1671,-0.009638,16.0006,996.5831
1672,-0.014632,16.0062,996.5881
1673,-0.007720,16.0062,996.5930
1674,-0.011475,16.0106,996.5980
1675,-0.006079,16.0106,996.6030
1676,-0.012383,16.0156,996.6080
1677,-0.006907,16.0156,996.6130
1678,-0.011971,16.0206,996.6180
1679,-0.007669,16.0206,996.6230
1680,-0.014660,16.0262,996.6281
1681,-0.009712,16.0262,996.6331
1725,-0.008908,16.1356,996.8530
1726,-0.012083,16.1406,996.8580
1727,-0.009133,16.1406,996.8630
1728,-0.013509,16.1462,996.8680
1729,-0.010264,16.1462,996.8730
1730,-0.012696,16.1506,996.8781
1731,-0.008955,16.1506,996.8831
1732,-0.013720,16.1556,996.8881
1733,-0.010648,16.1556,996.8931
1734,-0.013954,16.1606,996.8981
1735,-0.011045,16.1606,996.9031
1736,-0.015146,16.1662,996.9080
1737,-0.011410,16.1662,996.9130
1738,-0.012897,16.1706,996.9180
1739,-0.009011,16.1706,996.9230
1740,-0.012799,16.1756,996.9280
1741,-0.009988,16.1756,996.9330
1742,-0.013748,16.1806,996.9380
1743,-0.011171,16.1806,996.9431
1744,-0.014454,16.1862,996.9481
1745,-0.010914,16.1862,996.9531
1746,-0.011733,16.1906,996.9581
1747,-0.008679,16.1906,996.9631
1748,-0.012256,16.1956,996.9680
1749,-0.009020,16.1956,996.9730
1750,-0.011040,16.2006,996.9780
1751,-0.008656,16.2006,996.9830
1752,-0.012981,16.2056,996.9880
1753,-0.010217,16.2056,996.9930
1797,-0.010433,16.3156,997.2131
1798,-0.011026,16.3206,997.2180
1799,-0.011326,16.3206,997.2230
1800,-0.013332,16.3262,997.2280
1801,-0.013065,16.3262,997.2330
1802,-0.012906,16.3306,997.2380
1803,-0.012027,16.3306,997.2430
1804,-0.013014,16.3356,997.2480
1805,-0.011560,16.3356,997.2531
1806,-0.009914,16.3406,997.2581
1807,-0.009726,16.3406,997.2631
1808,-0.011653,16.3462,997.2681
1809,-0.012532,16.3462,997.2731
1810,-0.012163,16.3506,997.2781
1811,-0.011508,16.3506,997.2830
1812,-0.012462,16.3556,997.2880
1813,-0.011994,16.3556,997.2930
1814,-0.011789,16.3606,997.2980
1815,-0.012453,16.3606,997.3030
1816,-0.012850,16.3662,997.3080
1817,-0.012429,16.3662,997.3130
1818,-0.010381,16.3706,997.3181
1819,-0.009937,16.3706,997.3231
1820,-0.010353,16.3756,997.3281
1821,-0.010087,16.3756,997.3331
1822,-0.009628,16.3806,997.3381
1823,-0.010722,16.3806,997.3430
1824,-0.011667,16.3862,997.3480
1825,-0.012130,16.3862,997.3530
1826,-0.009596,16.3906,997.3580
1869,-0.013935,16.4956,997.5731
1870,-0.011195,16.5006,997.5781
1871,-0.012766,16.5006,997.5831
1872,-0.010807,16.5062,997.5881
1873,-0.012724,16.5062,997.5930
1874,-0.009095,16.5106,997.5980
1875,-0.011391,16.5106,997.6030
1876,-0.010423,16.5162,997.6080
1877,-0.012439,16.5162,997.6130
1878,-0.009581,16.5206,997.6180
1879,-0.012214,16.5206,997.6230
1880,-0.010563,16.5262,997.6281
1881,-0.013098,16.5262,997.6331
1882,-0.009119,16.5306,997.6381
1883,-0.011050,16.5306,997.6431
1884,-0.009119,16.5362,997.6481
1885,-0.012373,16.5362,997.6531
1886,-0.010236,16.5406,997.6580
1887,-0.013341,16.5406,997.6630
1888,-0.011686,16.5462,997.6680
1889,-0.014244,16.5462,997.6730
1890,-0.008632,16.5506,997.6780
1891,-0.010998,16.5506,997.6830
1892,-0.009764,16.5562,997.6880
1893,-0.012836,16.5562,997.6931
1894,-0.008927,16.5606,997.6981
1895,-0.011882,16.5606,997.7031
1896,-0.009002,16.5662,997.7081
1897,-0.012532,16.5662,997.7131
1898,-0.008712,16.5706,997.7180
1899,-0.012256,16.5706,997.7230
1900,-0.010746,16.5762,997.7280
1901,-0.014127,16.5762,997.7330
1902,-0.009923,16.5806,997.7380
1903,-0.012700,16.5806,997.7430
1904,-0.009502,16.5862,997.7480
1905,-0.013248,16.5862,997.7531
1906,-0.008221,16.5906,997.7581
1907,-0.011401,16.5906,997.7631
1908,-0.009044,16.5962,997.7681
1909,-0.012761,16.5962,997.7731
1910,-0.008235,16.6006,997.7781
1972,-0.009105,16.7562,998.0881
1973,-0.014992,16.7562,998.0930
1974,-0.007912,16.7606,998.0980
1975,-0.013121,16.7606,998.1030
1976,-0.007865,16.7662,998.1080
1977,-0.014155,16.7662,998.1130
1978,-0.007197,16.7706,998.1180
1979,-0.012429,16.7706,998.1230
1980,-0.007075,16.7756,998.1281
1981,-0.013617,16.7756,998.1331
1982,-0.007968,16.7806,998.1381
1983,-0.014393,16.7806,998.1431
1984,-0.009535,16.7862,998.1481
1985,-0.015272,16.7862,998.1531
1986,-0.006420,16.7906,998.1580
1987,-0.012284,16.7906,998.1630
1988,-0.007622,16.7962,998.1680
1989,-0.013982,16.7962,998.1730
1990,-0.007094,16.8006,998.1780
1991,-0.013163,16.8006,998.1830
1992,-0.007622,16.8062,998.1880
1993,-0.014795,16.8062,998.1931
1994,-0.008422,16.8106,998.1981
1995,-0.014482,16.8106,998.2031
1996,-0.007921,16.8156,998.2081
1997,-0.013804,16.8156,998.2131
1998,-0.006687,16.8206,998.2180
1999,-0.013149,16.8206,998.2230
2000,-0.008123,16.8262,998.2280
