Point No.,Normal Force [N],Gap [mm],Time [s]
1,2.085364,11.3156,2000
2,2.089273,11.3156,2000
3,2.087038,11.3156,2000
4,2.077625,11.3156,2000
5,2.075006,11.3156,2000
6,2.077868,11.3162,2000
7,2.061520,11.3162,2000
8,2.064012,11.3187,2000
9,2.055829,11.3187,2000
10,2.060865,11.3187,2000
11,2.003778,11.3218,2000
12,2.031401,11.3218,2000
13,1.986205,11.3262,2000
14,1.943718,11.3261,2000
15,1.961151,11.3312,2000
16,1.955366,11.3312,2000
17,1.924835,11.3355,2000
18,1.888450,11.3355,2000
19,1.907019,11.3405,2000
20,1.856301,11.3405,2000
21,1.851639,11.3455,2000
22,1.803143,11.3504,2000
23,1.839285,11.3505,2000
24,1.779865,11.3554,2000
25,1.783292,11.3554,2000
26,1.726219,11.3554,2000
27,1.772228,11.3604,2000
28,1.683292,11.3604,2000
29,1.720220,11.3654,2000
30,1.620884,11.3653,2000
31,1.688810,11.3704,2000
32,1.583727,11.3703,2000
33,1.635516,11.3753,2000
34,1.553112,11.3753,2000
35,1.619140,11.3803,2000
36,1.507286,11.3803,2000
37,1.578803,11.3853,2000
38,1.466009,11.3852,2000
39,1.552069,11.3903,2000
40,1.436208,11.3902,2000
41,1.497400,11.3953,2000
42,1.407576,11.3952,2000
43,1.470288,11.4002,2000
44,1.370063,11.4002,2000
45,1.426481,11.4052,2000
46,1.326902,11.4052,2000
47,1.399804,11.4102,2000
48,1.295244,11.4101,2000
49,1.347281,11.4152,2000
50,1.270246,11.4151,2000
51,1.324442,11.4202,2000
52,1.231747,11.4201,2000
53,1.285681,11.4251,2000
54,1.195417,11.4251,2000
55,1.262829,11.4301,2000
56,1.159289,11.4301,2000
57,1.213365,11.4351,2000
58,1.133940,11.4350,2000
59,1.188431,11.4401,2000
60,1.095067,11.4400,2000
61,1.150283,11.4451,2000
62,1.059626,11.4450,2000
63,1.123503,11.4507,2000
64,1.028548,11.4506,2000
65,1.071172,11.4550,2000
66,0.999939,11.4550,2000
67,1.053580,11.4600,2000
68,0.963610,11.4599,2000
69,1.015385,11.4650,2000
70,0.924064,11.4649,2000
71,0.994337,11.4700,2000
72,0.892130,11.4699,2000
73,0.938200,11.4749,2000
74,0.873505,11.4749,2000
75,0.917498,11.4799,2000
76,0.836666,11.4799,2000
77,0.873374,11.4849,2000
78,0.793416,11.4848,2000
79,0.856797,11.4905,2000
80,0.758060,11.4904,2000
81,0.801001,11.4948,2000
82,0.744784,11.4948,2000
83,0.784662,11.4998,2000
84,0.705836,11.4998,2000
85,0.749539,11.5048,2000
86,0.666168,11.5048,2000
87,0.731429,11.5098,2000
88,0.626631,11.5097,2000
89,0.674730,11.5148,2000
90,0.614075,11.5147,2000
91,0.660267,11.5198,2000
92,0.570956,11.5197,2000
93,0.620730,11.5247,2000
94,0.527753,11.5247,2000
95,0.603914,11.5297,2000
96,0.483638,11.5297,2000
97,0.538326,11.5347,2000
98,0.466696,11.5347,2000
99,0.518363,11.5397,2000
100,0.437882,11.5396,2000
101,0.473308,11.5447,2000
102,0.408024,11.5446,2000
103,0.460585,11.5496,2000
104,0.376320,11.5496,2000
105,0.416502,11.5546,2000
106,0.365686,11.5546,2000
107,0.404386,11.5596,2000
108,0.335343,11.5596,2000
109,0.379406,11.5646,2000
110,0.303549,11.5646,2000
111,0.366874,11.5696,2000
112,0.271817,11.5695,2000
113,0.316119,11.5746,2000
114,0.258457,11.5745,2000
115,0.303110,11.5796,2000
116,0.229904,11.5795,2000
117,0.276409,11.5845,2000
118,0.202146,11.5845,2000
119,0.263278,11.5902,2000
120,0.165663,11.5901,2000
121,0.213117,11.5945,2000
122,0.155455,11.5945,2000
123,0.195843,11.5995,2000
124,0.125766,11.5994,2000
125,0.171527,11.6045,2000
126,0.091503,11.6044,2000
127,0.155731,11.6095,2000
128,0.063011,11.6094,2000
129,0.113177,11.6144,2000
130,0.047926,11.6144,2000
131,0.090334,11.6194,2000
132,0.020126,11.6194,2000
133,0.060323,11.6244,2000
134,-0.004382,11.6244,2000
135,0.052705,11.6300,2000
136,-0.037695,11.6300,2000
137,0.008787,11.6344,2000
138,-0.050072,11.6343,2000
139,-0.005509,11.6394,2000
140,-0.078335,11.6393,2000
141,-0.034389,11.6444,2000
142,-0.104541,11.6443,2000
143,-0.042810,11.6494,2000
144,-0.130886,11.6493,2000
145,-0.092083,11.6543,2000
146,-0.148436,11.6543,2000
147,-0.106327,11.6593,2000
148,-0.175572,11.6593,2000
149,-0.135745,11.6643,2000
150,-0.202492,11.6643,2000
151,-0.144929,11.6693,2000
152,-0.230606,11.6692,2000
153,-0.189605,11.6743,2000
154,-0.244625,11.6742,2000
155,-0.205995,11.6793,2000
156,-0.269582,11.6792,2000
157,-0.230816,11.6842,2000
158,-0.293636,11.6842,2000
159,-0.236086,11.6892,2000
160,-0.325499,11.6892,2000
161,-0.282357,11.6942,2000
162,-0.343549,11.6942,2000
163,-0.300982,11.6992,2000
164,-0.367758,11.6992,2000
165,-0.326154,11.7042,2000
166,-0.385653,11.7041,2000
167,-0.332149,11.7092,2000
168,-0.423138,11.7091,2000
169,-0.373930,11.7142,2000
170,-0.433449,11.7141,2000
171,-0.392869,11.7191,2000
172,-0.458102,11.7191,2000
173,-0.422371,11.7241,2001
174,-0.484316,11.7241,2001
175,-0.426434,11.7297,2001
176,-0.508758,11.7297,2001
177,-0.465008,11.7341,2001
178,-0.533729,11.7341,2001
179,-0.481571,11.7391,2001
180,-0.541847,11.7391,2001
181,-0.508193,11.7441,2001
182,-0.576119,11.7440,2001
183,-0.520187,11.7491,2001
184,-0.595731,11.7490,2001
185,-0.563839,11.7540,2001
186,-0.611368,11.7540,2001
187,-0.571658,11.7590,2001
188,-0.626542,11.7590,2001
189,-0.591405,11.7640,2001
190,-0.642427,11.7640,2001
191,-0.589264,11.7697,2001
192,-0.665583,11.7696,2001
193,-0.619163,11.7740,2001
194,-0.672275,11.7740,2001
195,-0.631078,11.7790,2001
196,-0.696016,11.7790,2001
197,-0.668071,11.7840,2001
198,-0.709806,11.7840,2001
199,-0.667650,11.7890,2001
200,-0.756166,11.7889,2001
201,-0.735184,11.7939,2001
202,-0.772743,11.7939,2001
203,-0.719406,11.7990,2001
204,-0.792537,11.7989,2001
205,-0.759589,11.8039,2001
206,-0.816306,11.8039,2001
207,-0.767833,11.8089,2001
208,-0.841043,11.8089,2001
209,-0.801913,11.8139,2001
210,-0.857989,11.8139,2001
211,-0.817405,11.8189,2001
212,-0.879467,11.8189,2001
213,-0.845270,11.8239,2001
214,-0.900566,11.8238,2001
215,-0.846014,11.8289,2001
216,-0.919280,11.8288,2001
217,-0.880716,11.8339,2001
218,-0.934019,11.8338,2001
219,-0.898583,11.8388,2001
220,-0.958494,11.8388,2001
221,-0.924793,11.8438,2001
222,-0.974828,11.8438,2001
223,-0.923867,11.8488,2001
224,-0.997278,11.8488,2001
225,-0.958284,11.8538,2001
226,-1.007837,11.8538,2001
227,-0.963619,11.8588,2001
228,-1.020196,11.8588,2001
229,-0.990016,11.8638,2001
230,-1.036591,11.8638,2001
231,-0.989455,11.8688,2001
232,-1.057480,11.8688,2001
233,-1.019060,11.8738,2001
234,-1.073598,11.8737,2001
235,-1.036100,11.8788,2001
236,-1.088740,11.8787,2001
237,-1.059252,11.8837,2001
238,-1.108955,11.8837,2001
239,-1.062291,11.8887,2001
240,-1.124728,11.8887,2001
241,-1.094983,11.8937,2001
242,-1.139289,11.8937,2001
243,-1.103877,11.8987,2001
244,-1.151489,11.8987,2001
245,-1.129493,11.9037,2001
246,-1.162899,11.9037,2001
247,-1.130652,11.9087,2001
248,-1.182582,11.9087,2001
249,-1.157386,11.9137,2001
250,-1.186000,11.9137,2001
251,-1.165579,11.9187,2001
252,-1.203666,11.9187,2001
253,-1.182413,11.9237,2001
254,-1.216717,11.9237,2001
255,-1.184269,11.9287,2001
256,-1.240182,11.9286,2001
257,-1.198513,11.9337,2001
258,-1.249460,11.9336,2001
259,-1.215721,11.9387,2001
260,-1.260411,11.9386,2001
261,-1.236928,11.9436,2001
262,-1.280028,11.9436,2001
263,-1.239991,11.9486,2001
264,-1.294005,11.9486,2001
265,-1.262717,11.9530,2001
266,-1.308754,11.9530,2001
267,-1.283858,11.9586,2001
268,-1.323512,11.9586,2001
269,-1.301992,11.9630,2001
270,-1.347533,11.9630,2001
271,-1.300622,11.9686,2001
272,-1.358583,11.9686,2001
273,-1.335614,11.9736,2001
274,-1.374763,11.9736,2001
275,-1.345859,11.9786,2001
276,-1.387936,11.9786,2001
277,-1.368801,11.9836,2001
278,-1.404288,11.9835,2001
279,-1.370367,11.9886,2001
280,-1.423479,11.9885,2001
281,-1.394936,11.9929,2001
282,-1.437901,11.9929,2001
283,-1.407533,11.9985,2001
284,-1.443736,11.9985,2001
285,-1.428071,12.0029,2001
286,-1.465434,12.0029,2001
287,-1.426813,12.0085,2001
288,-1.475282,12.0085,2001
289,-1.441193,12.0129,2001
290,-1.485593,12.0129,2001
291,-1.460491,12.0179,2001
292,-1.494843,12.0179,2001
293,-1.477475,12.0235,2001
294,-1.507197,12.0235,2001
295,-1.474333,12.0285,2001
296,-1.531578,12.0285,2001
297,-1.500355,12.0329,2001
298,-1.531209,12.0328,2001
299,-1.507028,12.0379,2001
300,-1.533084,12.0378,2001
301,-1.510068,12.0429,2001
302,-1.543479,12.0428,2001
303,-1.510433,12.0485,2001
304,-1.560458,12.0485,2001
305,-1.536390,12.0528,2001
306,-1.573093,12.0528,2001
307,-1.550030,12.0578,2001
308,-1.577732,12.0578,2001
309,-1.572004,12.0628,2001
310,-1.596652,12.0628,2001
311,-1.571513,12.0684,2001
312,-1.611564,12.0684,2001
313,-1.589465,12.0728,2001
314,-1.623821,12.0728,2001
315,-1.602020,12.0778,2001
316,-1.630311,12.0778,2001
317,-1.621113,12.0828,2001
318,-1.638779,12.0828,2001
319,-1.614955,12.0884,2001
320,-1.650779,12.0884,2001
321,-1.624209,12.0928,2001
322,-1.653416,12.0928,2001
323,-1.633883,12.0978,2001
324,-1.661679,12.0978,2001
325,-1.653776,12.1028,2001
326,-1.674941,12.1028,2001
327,-1.651372,12.1084,2001
328,-1.683900,12.1084,2001
329,-1.672827,12.1128,2001
330,-1.706954,12.1127,2001
331,-1.682226,12.1178,2001
332,-1.701917,12.1177,2001
333,-1.695459,12.1228,2001
334,-1.705481,12.1227,2001
335,-1.679954,12.1284,2001
336,-1.715114,12.1284,2001
337,-1.700804,12.1327,2001
338,-1.733682,12.1327,2001
339,-1.711737,12.1377,2001
340,-1.736395,12.1377,2001
341,-1.731597,12.1427,2001
342,-1.750709,12.1427,2001
343,-1.727332,12.1484,2001
344,-1.757947,12.1483,2001
345,-1.727701,12.1527,2001
346,-1.760248,12.1527,2001
347,-1.737989,12.1577,2001
348,-1.759378,12.1577,2001
349,-1.756671,12.1627,2001
350,-1.774300,12.1627,2001
351,-1.761917,12.1683,2001
352,-1.791218,12.1683,2001
353,-1.779219,12.1727,2001
354,-1.807047,12.1727,2001
355,-1.787898,12.1777,2001
356,-1.809469,12.1777,2001
357,-1.806346,12.1827,2001
358,-1.823923,12.1827,2001
359,-1.811564,12.1883,2001
360,-1.831602,12.1883,2001
361,-1.825013,12.1927,2001
362,-1.855684,12.1927,2001
363,-1.836806,12.1977,2001
364,-1.854968,12.1977,2001
365,-1.854150,12.2027,2001
366,-1.859738,12.2027,2001
367,-1.830316,12.2083,2001
368,-1.847028,12.2083,2001
369,-1.841777,12.2127,2001
370,-1.871779,12.2126,2001
371,-1.853626,12.2177,2001
372,-1.872499,12.2176,2001
373,-1.873902,12.2226,2002
374,-1.879205,12.2226,2002
375,-1.874071,12.2283,2002
376,-1.892448,12.2283,2002
377,-1.887197,12.2326,2002
378,-1.913252,12.2326,2002
379,-1.904083,12.2376,2002
380,-1.911064,12.2376,2002
381,-1.921394,12.2426,2002
382,-1.930129,12.2426,2002
383,-1.917339,12.2482,2002
384,-1.933776,12.2482,2002
385,-1.934010,12.2526,2002
386,-1.953935,12.2526,2002
387,-1.945495,12.2576,2002
388,-1.952116,12.2576,2002
389,-1.961800,12.2626,2002
390,-1.966028,12.2626,2002
391,-1.961871,12.2682,2002
392,-1.970358,12.2682,2002
393,-1.954782,12.2726,2002
394,-1.958766,12.2726,2002
395,-1.946004,12.2776,2002
396,-1.931391,12.2776,2002
397,-1.944391,12.2826,2002
398,-1.944129,12.2826,2002
399,-1.945658,12.2882,2002
400,-1.948001,12.2882,2002
401,-1.952018,12.2926,2002
402,-1.954553,12.2926,2002
403,-1.930938,12.2976,2002
404,-1.934795,12.2976,2002
405,-1.929451,12.3026,2002
406,-1.924690,12.3026,2002
407,-1.925102,12.3082,2002
408,-1.928436,12.3082,2002
409,-1.935591,12.3126,2002
410,-1.947860,12.3126,2002
411,-1.948085,12.3176,2002
412,-1.947459,12.3176,2002
413,-1.964003,12.3226,2002
414,-1.962081,12.3226,2002
415,-1.965382,12.3282,2002
416,-2.018760,12.3282,2002
417,-1.977896,12.3326,2002
418,-2.012410,12.3326,2002
419,-1.990204,12.3376,2002
420,-2.026963,12.3376,2002
421,-2.001655,12.3426,2002
422,-2.029914,12.3426,2002
423,-1.975777,12.3482,2002
424,-2.021365,12.3482,2002
425,-1.987234,12.3526,2002
426,-2.026214,12.3526,2002
427,-2.004251,12.3582,2002
428,-2.040094,12.3582,2002
429,-2.011354,12.3626,2002
430,-2.036619,12.3626,2002
431,-1.989470,12.3682,2002
432,-2.027416,12.3682,2002
433,-1.993996,12.3726,2002
434,-2.032457,12.3726,2002
435,-2.008978,12.3776,2002
436,-2.045756,12.3775,2002
437,-2.020851,12.3826,2002
438,-2.052289,12.3825,2002
439,-2.021478,12.3882,2002
440,-2.061641,12.3882,2002
441,-2.031363,12.3926,2002
442,-2.065350,12.3925,2002
443,-2.044297,12.3982,2002
444,-2.077213,12.3982,2002
445,-2.057779,12.4025,2002
446,-2.083633,12.4025,2002
447,-2.051966,12.4082,2002
448,-2.092868,12.4081,2002
449,-2.061917,12.4125,2002
450,-2.097512,12.4125,2002
451,-2.072659,12.4182,2002
452,-2.099659,12.4181,2002
453,-2.083535,12.4225,2002
454,-2.080454,12.4225,2002
455,-2.054137,12.4282,2002
456,-2.091386,12.4281,2002
457,-2.060159,12.4325,2002
458,-2.078784,12.4325,2002
459,-2.050550,12.4382,2002
460,-2.073505,12.4382,2002
461,-2.064419,12.4432,2002
462,-2.089352,12.4431,2002
463,-2.064802,12.4482,2002
464,-2.095030,12.4481,2002
465,-2.070769,12.4525,2002
466,-2.097769,12.4525,2002
467,-2.084185,12.4581,2002
468,-2.108857,12.4581,2002
469,-2.098177,12.4625,2002
470,-2.123835,12.4625,2002
471,-2.100524,12.4681,2002
472,-2.127828,12.4681,2002
473,-2.101263,12.4725,2002
474,-2.133884,12.4725,2002
475,-2.118658,12.4781,2002
476,-2.139041,12.4781,2002
477,-2.129525,12.4825,2002
478,-2.138041,12.4825,2002
479,-2.098237,12.4881,2002
480,-2.121548,12.4881,2002
481,-2.099140,12.4925,2002
482,-2.126046,12.4925,2002
483,-2.113313,12.4981,2002
484,-2.136858,12.4981,2002
485,-2.128202,12.5025,2002
486,-2.137461,12.5025,2002
487,-2.126149,12.5081,2002
488,-2.152073,12.5081,2002
489,-2.130325,12.5125,2002
490,-2.154000,12.5125,2002
491,-2.139663,12.5181,2002
492,-2.130737,12.5181,2002
493,-2.129395,12.5225,2002
494,-2.139471,12.5225,2002
495,-2.130320,12.5281,2002
496,-2.152135,12.5281,2002
497,-2.134440,12.5331,2002
498,-2.151582,12.5331,2002
499,-2.145069,12.5381,2002
500,-2.144564,12.5381,2002
501,-2.116703,12.5425,2002
502,-2.123722,12.5425,2002
503,-2.120893,12.5481,2002
504,-2.130409,12.5481,2002
505,-2.093921,12.5525,2002
506,-2.107838,12.5525,2002
507,-2.102802,12.5581,2002
508,-2.112715,12.5581,2002
509,-2.115039,12.5625,2002
510,-2.120440,12.5625,2002
511,-2.120253,12.5681,2002
512,-2.134627,12.5681,2002
513,-2.116096,12.5725,2002
514,-2.138742,12.5725,2002
515,-2.134351,12.5781,2002
516,-2.134033,12.5781,2002
517,-2.146051,12.5831,2002
518,-2.147776,12.5831,2002
519,-2.148932,12.5881,2002
520,-2.156081,12.5881,2002
521,-2.148744,12.5925,2002
522,-2.161805,12.5925,2002
523,-2.134080,12.5981,2002
524,-2.124489,12.5981,2002
525,-2.133996,12.6025,2002
526,-2.132233,12.6025,2002
527,-2.140000,12.6081,2002
528,-2.115184,12.6081,2002
529,-2.108740,12.6125,2002
530,-2.119780,12.6125,2002
531,-2.113832,12.6181,2002
532,-2.117049,12.6181,2002
533,-2.125934,12.6225,2002
534,-2.127903,12.6225,2002
535,-2.137110,12.6281,2002
536,-2.137035,12.6281,2002
537,-2.126547,12.6331,2002
538,-2.134117,12.6331,2002
539,-2.106210,12.6381,2002
540,-2.100618,12.6381,2002
541,-2.111733,12.6425,2002
542,-2.112789,12.6425,2002
543,-2.119771,12.6481,2002
544,-2.119738,12.6481,2002
545,-2.119023,12.6531,2002
546,-2.124106,12.6531,2002
547,-2.126163,12.6581,2002
548,-2.125359,12.6581,2002
549,-2.141375,12.6625,2002
550,-2.132827,12.6625,2002
551,-2.142558,12.6681,2002
552,-2.138859,12.6681,2002
553,-2.137171,12.6731,2002
554,-2.128651,12.6731,2002
555,-2.109554,12.6781,2002
556,-2.100903,12.6781,2002
557,-2.125378,12.6831,2002
558,-2.111190,12.6831,2002
559,-2.126981,12.6881,2002
560,-2.117625,12.6881,2002
561,-2.126467,12.6925,2002
562,-2.131125,12.6925,2002
563,-2.128464,12.6981,2002
564,-2.122969,12.6981,2002
565,-2.139233,12.7025,2002
566,-2.129568,12.7025,2002
567,-2.147575,12.7081,2002
568,-2.140224,12.7081,2002
569,-2.149904,12.7125,2002
570,-2.147940,12.7125,2002
571,-2.152836,12.7181,2002
572,-2.139911,12.7181,2003
573,-2.160009,12.7231,2003
574,-2.152069,12.7231,2003
575,-2.168726,12.7281,2003
576,-2.158724,12.7281,2003
577,-2.166528,12.7325,2003
578,-2.138536,12.7325,2003
579,-2.140061,12.7381,2003
580,-2.127290,12.7381,2003
581,-2.147398,12.7425,2003
582,-2.134800,12.7425,2003
583,-2.151601,12.7481,2003
584,-2.137895,12.7481,2003
585,-2.138452,12.7531,2003
586,-2.108791,12.7531,2003
587,-2.123568,12.7581,2003
588,-2.105303,12.7581,2003
589,-2.135969,12.7625,2003
590,-2.117433,12.7625,2003
591,-2.141829,12.7681,2003
592,-2.122712,12.7681,2003
593,-2.138812,12.7731,2003
594,-2.128539,12.7731,2003
595,-2.148150,12.7781,2003
596,-2.126701,12.7781,2003
597,-2.152009,12.7825,2003
598,-2.137512,12.7825,2003
599,-2.163077,12.7881,2003
600,-2.142282,12.7881,2003
601,-2.160950,12.7925,2003
602,-2.152958,12.7925,2003
603,-2.170330,12.7981,2003
604,-2.148922,12.7981,2003
605,-2.176395,12.8025,2003
606,-2.152415,12.8025,2003
607,-2.189109,12.8081,2003
608,-2.160154,12.8081,2003
609,-2.186608,12.8125,2003
610,-2.170905,12.8125,2003
611,-2.192312,12.8181,2003
612,-2.169530,12.8181,2003
613,-2.202871,12.8225,2003
614,-2.177344,12.8225,2003
615,-2.204162,12.8281,2003
616,-2.177208,12.8281,2003
617,-2.209016,12.8324,2003
618,-2.191859,12.8325,2003
619,-2.211073,12.8381,2003
620,-2.185873,12.8381,2003
621,-2.221347,12.8424,2003
622,-2.192878,12.8425,2003
623,-2.229526,12.8481,2003
624,-2.195927,12.8481,2003
625,-2.223910,12.8524,2003
626,-2.176624,12.8525,2003
627,-2.192991,12.8581,2003
628,-2.167534,12.8581,2003
629,-2.205177,12.8624,2003
630,-2.173491,12.8625,2003
631,-2.210320,12.8681,2003
632,-2.171527,12.8681,2003
633,-2.205471,12.8725,2003
634,-2.188459,12.8725,2003
635,-2.216165,12.8781,2003
636,-2.182787,12.8781,2003
637,-2.226963,12.8824,2003
638,-2.190006,12.8825,2003
639,-2.233963,12.8881,2003
640,-2.191943,12.8881,2003
641,-2.228020,12.8924,2003
642,-2.205896,12.8925,2003
643,-2.235221,12.8974,2003
644,-2.199182,12.8975,2003
645,-2.243301,12.9024,2003
646,-2.204269,12.9025,2003
647,-2.249399,12.9080,2003
648,-2.209703,12.9081,2003
649,-2.249666,12.9124,2003
650,-2.219958,12.9124,2003
651,-2.222825,12.9174,2003
652,-2.181104,12.9175,2003
653,-2.223867,12.9224,2003
654,-2.186954,12.9225,2003
655,-2.233154,12.9281,2003
656,-2.187220,12.9281,2003
657,-2.230503,12.9324,2003
658,-2.205237,12.9324,2003
659,-2.233117,12.9374,2003
660,-2.196895,12.9375,2003
661,-2.248726,12.9424,2003
662,-2.207557,12.9424,2003
663,-2.249497,12.9480,2003
664,-2.202913,12.9481,2003
665,-2.249240,12.9524,2003
666,-2.218475,12.9524,2003
667,-2.256708,12.9574,2003
668,-2.208220,12.9574,2003
669,-2.265162,12.9624,2003
670,-2.218902,12.9624,2003
671,-2.271111,12.9680,2003
672,-2.216717,12.9681,2003
673,-2.237269,12.9724,2003
674,-2.197541,12.9725,2003
675,-2.229208,12.9774,2003
676,-2.182736,12.9775,2003
677,-2.233388,12.9824,2003
678,-2.191026,12.9825,2003
679,-2.243914,12.9881,2003
680,-2.190358,12.9881,2003
681,-2.242254,12.9924,2003
682,-2.212873,12.9924,2003
683,-2.237021,12.9974,2003
684,-2.192490,12.9975,2003
685,-2.248024,13.0024,2003
686,-2.197568,13.0025,2003
687,-2.252827,13.0080,2003
688,-2.182235,13.0081,2003
689,-2.214701,13.0124,2003
690,-2.176502,13.0125,2003
691,-2.211541,13.0174,2003
692,-2.170732,13.0175,2003
693,-2.222273,13.0224,2003
694,-2.175174,13.0225,2003
695,-2.232537,13.0281,2003
696,-2.169151,13.0281,2003
697,-2.225906,13.0324,2003
698,-2.168829,13.0325,2003
699,-2.192906,13.0375,2003
700,-2.144975,13.0375,2003
701,-2.198265,13.0425,2003
702,-2.150610,13.0425,2003
703,-2.205499,13.0481,2003
704,-2.148300,13.0481,2003
705,-2.206729,13.0524,2003
706,-2.168890,13.0525,2003
707,-2.205116,13.0574,2003
708,-2.156441,13.0575,2003
709,-2.215422,13.0624,2003
710,-2.164728,13.0625,2003
711,-2.222726,13.0681,2003
712,-2.159869,13.0681,2003
713,-2.200215,13.0725,2003
714,-2.140800,13.0725,2003
715,-2.174061,13.0775,2003
716,-2.130765,13.0775,2003
717,-2.188759,13.0825,2003
718,-2.135525,13.0825,2003
719,-2.197699,13.0881,2003
720,-2.130638,13.0881,2003
721,-2.194356,13.0925,2003
722,-2.148950,13.0925,2003
723,-2.194384,13.0975,2003
724,-2.148258,13.0975,2003
725,-2.202642,13.1025,2003
726,-2.147070,13.1025,2003
727,-2.214701,13.1081,2003
728,-2.142310,13.1081,2003
729,-2.207954,13.1124,2003
730,-2.148216,13.1125,2003
731,-2.159415,13.1175,2003
732,-2.105920,13.1175,2003
733,-2.163484,13.1225,2003
734,-2.097452,13.1225,2003
735,-2.134781,13.1281,2003
736,-2.061814,13.1282,2003
737,-2.134763,13.1325,2003
738,-2.083315,13.1325,2003
739,-2.130671,13.1375,2003
740,-2.071546,13.1375,2003
741,-2.138625,13.1425,2003
742,-2.081875,13.1425,2003
743,-2.145415,13.1475,2003
744,-2.073308,13.1475,2003
745,-2.146598,13.1525,2003
746,-2.093786,13.1525,2003
747,-2.140000,13.1575,2003
748,-2.040159,13.1575,2003
749,-2.102802,13.1625,2003
750,-2.044788,13.1625,2003
751,-2.107931,13.1675,2003
752,-2.036601,13.1675,2003
753,-2.110849,13.1725,2003
754,-2.058331,13.1725,2003
755,-2.108824,13.1725,2003
756,-2.045935,13.1775,2003
757,-2.115674,13.1775,2003
758,-2.055960,13.1825,2003
759,-2.120126,13.1881,2003
760,-2.045972,13.1882,2003
761,-2.128244,13.1925,2003
762,-2.070867,13.1925,2003
763,-2.119607,13.1975,2003
764,-2.060561,13.1975,2003
765,-2.126869,13.2025,2003
766,-2.066378,13.2025,2003
767,-2.132284,13.2075,2003
768,-2.014711,13.2076,2003
769,-2.091171,13.2125,2003
770,-2.036517,13.2125,2003
771,-2.088034,13.2175,2003
772,-2.027711,13.2176,2004
773,-2.093612,13.2225,2004
774,-2.037503,13.2225,2004
775,-2.098452,13.2225,2004
776,-2.024433,13.2276,2004
777,-2.102114,13.2275,2004
778,-2.047968,13.2325,2004
779,-2.099154,13.2325,2004
780,-2.038055,13.2375,2004
781,-2.107253,13.2375,2004
782,-2.046495,13.2425,2004
783,-2.115567,13.2475,2004
784,-2.036058,13.2475,2004
785,-2.116624,13.2525,2004
786,-2.054749,13.2525,2004
787,-2.108366,13.2575,2004
788,-2.044396,13.2575,2004
789,-2.121478,13.2625,2004
790,-2.057788,13.2625,2004
791,-2.123905,13.2675,2004
792,-2.045247,13.2675,2004
793,-2.122605,13.2725,2004
794,-2.022651,13.2726,2004
795,-2.069577,13.2775,2004
796,-1.969020,13.2776,2004
797,-2.032069,13.2825,2004
798,-1.975361,13.2826,2004
799,-2.041301,13.2825,2004
800,-1.959818,13.2882,2004
801,-2.040262,13.2882,2004
802,-1.983268,13.2926,2004
803,-2.033659,13.2975,2004
804,-1.971087,13.2976,2004
805,-2.044863,13.3025,2004
806,-1.981828,13.3026,2004
807,-2.049432,13.3082,2004
808,-1.967772,13.3082,2004
809,-2.049638,13.3125,2004
810,-1.985111,13.3126,2004
811,-2.040819,13.3175,2004
812,-1.947786,13.3176,2004
813,-1.963540,13.3226,2004
814,-1.892336,13.3226,2004
815,-1.962563,13.3282,2004
816,-1.876053,13.3283,2004
817,-1.961300,13.3282,2004
818,-1.898971,13.3326,2004
819,-1.958279,13.3326,2004
820,-1.889656,13.3376,2004
821,-1.966229,13.3376,2004
822,-1.898887,13.3426,2004
823,-1.966580,13.3482,2004
824,-1.850161,13.3483,2004
825,-1.876325,13.3526,2004
826,-1.807814,13.3527,2004
827,-1.866294,13.3576,2004
828,-1.797667,13.3577,2004
829,-1.875702,13.3626,2004
830,-1.808197,13.3627,2004
831,-1.878340,13.3683,2004
832,-1.796422,13.3683,2004
833,-1.882184,13.3726,2004
834,-1.816680,13.3727,2004
835,-1.872902,13.3726,2004
836,-1.799771,13.3777,2004
837,-1.875202,13.3776,2004
838,-1.808539,13.3827,2004
839,-1.853238,13.3827,2004
840,-1.747870,13.3883,2004
841,-1.829806,13.3883,2004
842,-1.772677,13.3927,2004
843,-1.810690,13.3977,2004
844,-1.711256,13.3977,2004
845,-1.788001,13.4027,2004
846,-1.718209,13.4027,2004
847,-1.789525,13.4083,2004
848,-1.644676,13.4084,2004
849,-1.693477,13.4128,2004
850,-1.630456,13.4128,2004
851,-1.683867,13.4178,2004
852,-1.616890,13.4178,2004
853,-1.687201,13.4178,2004
854,-1.606650,13.4228,2004
855,-1.643891,13.4228,2004
856,-1.558770,13.4285,2004
857,-1.631480,13.4284,2004
858,-1.531344,13.4328,2004
859,-1.580617,13.4328,2004
860,-1.516811,13.4379,2004
861,-1.590811,13.4378,2004
862,-1.525298,13.4429,2004
863,-1.593856,13.4484,2004
864,-1.509053,13.4485,2004
865,-1.592214,13.4528,2004
866,-1.530414,13.4528,2004
867,-1.583769,13.4528,2004
868,-1.511326,13.4579,2004
869,-1.554674,13.4578,2004
870,-1.478929,13.4629,2004
871,-1.550091,13.4628,2004
872,-1.460734,13.4685,2004
873,-1.553304,13.4685,2004
874,-1.487412,13.4729,2004
875,-1.499570,13.4729,2004
876,-1.419672,13.4779,2004
877,-1.494838,13.4779,2004
878,-1.429235,13.4829,2004
879,-1.495511,13.4829,2004
880,-1.371368,13.4886,2004
881,-1.454071,13.4885,2004
882,-1.387589,13.4929,2004
883,-1.436844,13.4929,2004
884,-1.325410,13.4980,2004
885,-1.389362,13.4979,2004
886,-1.285060,13.5030,2004
887,-1.349123,13.5030,2004
888,-1.261052,13.5086,2004
889,-1.349642,13.5086,2004
890,-1.285513,13.5130,2004
891,-1.341501,13.5130,2004
892,-1.275090,13.5180,2004
893,-1.341632,13.5180,2004
894,-1.284620,13.5230,2004
895,-1.340734,13.5230,2004
896,-1.218985,13.5287,2004
897,-1.301010,13.5286,2004
898,-1.237199,13.5330,2004
899,-1.288076,13.5330,2004
900,-1.185163,13.5381,2004
901,-1.241179,13.5380,2004
902,-1.185326,13.5430,2004
903,-1.224629,13.5430,2004
904,-1.138204,13.5487,2004
905,-1.205064,13.5487,2004
906,-1.133182,13.5531,2004
907,-1.153210,13.5531,2004
908,-1.096881,13.5581,2004
909,-1.152803,13.5581,2004
910,-1.103685,13.5631,2004
911,-1.157096,13.5631,2004
912,-1.084845,13.5687,2004
913,-1.155787,13.5687,2004
914,-1.072415,13.5731,2004
915,-1.105546,13.5731,2004
916,-1.008024,13.5788,2004
917,-1.052972,13.5788,2004
918,-0.992892,13.5832,2004
919,-1.057891,13.5831,2004
920,-0.924938,13.5888,2004
921,-1.007323,13.5888,2004
922,-0.945523,13.5932,2004
923,-1.001810,13.5932,2004
924,-0.927454,13.5982,2004
925,-0.921828,13.5982,2004
926,-0.783086,13.6033,2004
927,-0.837208,13.6033,2004
928,-0.759196,13.6089,2004
929,-0.837180,13.6089,2004
930,-0.759771,13.6133,2004
931,-0.781539,13.6133,2004
932,-0.695006,13.6190,2004
933,-0.772930,13.6189,2004
934,-0.709235,13.6233,2004
935,-0.772700,13.6233,2004
936,-0.650115,13.6290,2004
937,-0.677723,13.6290,2004
938,-0.602717,13.6334,2004
939,-0.599934,13.6334,2004
940,-0.502955,13.6391,2004
941,-0.569324,13.6390,2004
942,-0.510105,13.6435,2004
943,-0.533336,13.6434,2004
944,-0.418125,13.6491,2004
945,-0.467697,13.6491,2004
946,-0.402904,13.6535,2004
947,-0.460542,13.6535,2004
948,-0.402216,13.6591,2004
949,-0.461595,13.6591,2004
950,-0.404671,13.6635,2004
951,-0.440837,13.6635,2004
952,-0.333935,13.6692,2004
953,-0.391223,13.6691,2004
954,-0.299308,13.6736,2004
955,-0.355983,13.6735,2004
956,-0.246631,13.6792,2004
957,-0.292911,13.6792,2004
958,-0.247622,13.6836,2004
959,-0.276872,13.6836,2004
960,-0.171892,13.6893,2004
961,-0.253682,13.6892,2004
962,-0.185869,13.6936,2004
963,-0.243198,13.6936,2004
964,-0.137349,13.6993,2004
965,-0.187580,13.6993,2004
966,-0.132378,13.7037,2004
967,-0.186430,13.7036,2004
968,-0.117157,13.7093,2004
969,-0.194805,13.7093,2004
970,-0.131260,13.7137,2004
971,-0.186018,13.7136,2004
972,-0.081235,13.7193,2005
973,-0.129722,13.7193,2005
974,-0.077414,13.7237,2005
975,-0.130255,13.7237,2005
976,-0.017119,13.7294,2005
977,-0.080743,13.7293,2005
978,-0.026762,13.7337,2005
979,-0.074248,13.7337,2005
980,-0.017045,13.7394,2005
981,-0.076708,13.7393,2005
982,-0.026593,13.7437,2005
983,-0.077400,13.7437,2005
984,-0.013177,13.7494,2005
985,-0.078190,13.7493,2005
986,-0.021763,13.7537,2005
987,-0.073865,13.7537,2005
988,-0.018476,13.7594,2005
989,-0.072326,13.7593,2005
990,-0.023769,13.7637,2005
991,-0.035805,13.7637,2005
992,0.043886,13.7694,2005
993,-0.022586,13.7694,2005
994,0.028361,13.7738,2005
995,-0.020823,13.7737,2005
996,0.034141,13.7794,2005
997,-0.015244,13.7794,2005
998,0.025808,13.7838,2005
999,-0.018457,13.7837,2005
1000,0.040912,13.7894,2005
1001,-0.021861,13.7894,2005
1002,0.030629,13.7938,2005
1003,-0.018312,13.7937,2005
1004,0.034506,13.7994,2005
1005,-0.017564,13.7994,2005
1006,0.025831,13.8038,2005
1007,-0.016367,13.8037,2005
1008,0.044802,13.8094,2005
1009,-0.017498,13.8094,2005
1010,0.028038,13.8138,2005
1011,-0.018639,13.8137,2005
1012,0.031704,13.8188,2005
1013,-0.018868,13.8187,2005
1014,0.023545,13.8238,2005
1015,-0.014622,13.8237,2005
1016,0.043301,13.8294,2005
1017,-0.013972,13.8294,2005
1018,0.028525,13.8338,2005
1019,-0.020257,13.8337,2005
1020,0.032686,13.8388,2005
1021,-0.013346,13.8387,2005
1022,0.028487,13.8438,2005
1023,-0.013589,13.8437,2005
1024,0.042053,13.8494,2005
1025,-0.012878,13.8494,2005
1026,0.024218,13.8538,2005
1027,-0.018153,13.8537,2005
1028,0.030914,13.8588,2005
1029,-0.010012,13.8587,2005
1030,0.022703,13.8638,2005
1031,-0.011952,13.8637,2005
1032,0.040734,13.8694,2005
1033,-0.016858,13.8694,2005
1034,0.028066,13.8738,2005
1035,-0.011157,13.8737,2005
1036,0.033963,13.8788,2005
1037,-0.008151,13.8787,2005
1038,0.020767,13.8838,2005
1039,-0.011003,13.8837,2005
1040,0.036802,13.8894,2005
1041,-0.016493,13.8894,2005
1042,0.029362,13.8938,2005
1043,-0.009928,13.8937,2005
1044,0.030741,13.8988,2005
1045,-0.012326,13.8987,2005
1046,0.019088,13.9038,2005
1047,-0.012621,13.9037,2005
1048,0.037358,13.9094,2005
1049,-0.010554,13.9094,2005
1050,0.029689,13.9138,2005
1051,-0.016465,13.9137,2005
1052,0.027566,13.9188,2005
1053,-0.011012,13.9187,2005
1054,0.020000,13.9238,2005
1055,-0.006589,13.9237,2005
1056,0.039172,13.9294,2005
1057,-0.014286,13.9294,2005
1058,0.025485,13.9338,2005
1059,-0.012467,13.9337,2005
1060,0.023470,13.9388,2005
1061,-0.008020,13.9387,2005
1062,0.020987,13.9438,2005
1063,-0.007314,13.9437,2005
1064,0.040192,13.9494,2005
1065,-0.006476,13.9494,2005
1066,0.024124,13.9538,2005
1067,-0.010115,13.9537,2005
1068,0.024975,13.9588,2005
1069,-0.006551,13.9587,2005
1070,0.019149,13.9638,2005
1071,-0.010895,13.9637,2005
1072,0.037433,13.9694,2005
1073,-0.006116,13.9694,2005
1074,0.027992,13.9738,2005
1075,-0.008529,13.9737,2005
1076,0.023231,13.9788,2005
1077,-0.003114,13.9787,2005
1078,0.016423,13.9838,2005
1079,-0.007706,13.9837,2005
1080,0.035399,13.9894,2005
1081,-0.005990,13.9894,2005
1082,0.027795,13.9938,2005
1083,-0.009904,13.9937,2005
1084,0.027112,13.9988,2005
1085,-0.004227,13.9987,2005
1086,0.014964,14.0038,2005
1087,-0.002736,14.0037,2005
1088,0.038139,14.0094,2005
1089,-0.003142,14.0094,2005
1090,0.023231,14.0138,2005
1091,-0.008211,14.0137,2005
1092,0.021450,14.0188,2005
1093,-0.003624,14.0187,2005
1094,0.018822,14.0238,2005
1095,-0.000122,14.0237,2005
1096,0.031747,14.0288,2005
1097,0.002595,14.0288,2005
1098,0.023942,14.0338,2005
1099,-0.006579,14.0337,2005
1100,0.020304,14.0388,2005
1101,0.001174,14.0388,2005
1102,0.012415,14.0438,2005
1103,-0.003746,14.0437,2005
1104,0.032724,14.0494,2005
1105,0.001651,14.0494,2005
1106,0.025270,14.0538,2005
1107,-0.005102,14.0537,2005
1108,0.023386,14.0588,2005
1109,0.000458,14.0588,2005
1110,0.010049,14.0638,2005
1111,-0.000126,14.0638,2005
1112,0.030989,14.0688,2005
1113,0.002764,14.0688,2005
1114,0.024386,14.0738,2005
1115,-0.003601,14.0737,2005
1116,0.019888,14.0788,2005
1117,0.001431,14.0788,2005
1118,0.012457,14.0838,2005
1119,0.002001,14.0838,2005
1120,0.030334,14.0888,2005
1121,0.002871,14.0888,2005
1122,0.021641,14.0938,2005
1123,-0.005859,14.0937,2005
1124,0.017980,14.0988,2005
1125,0.001959,14.0988,2005
1126,0.011396,14.1038,2005
1127,0.005350,14.1038,2005
1128,0.027529,14.1088,2005
1129,0.008066,14.1088,2005
1130,0.023657,14.1138,2005
1131,-0.004045,14.1137,2005
1132,0.019794,14.1188,2005
1133,0.003577,14.1188,2005
1134,0.012448,14.1231,2005
1135,0.002745,14.1231,2005
1136,0.023638,14.1288,2005
1137,0.007622,14.1288,2005
1138,0.025452,14.1338,2005
1139,-0.004036,14.1337,2005
1140,0.017269,14.1388,2005
1141,0.006916,14.1388,2005
1142,0.010283,14.1438,2005
1143,0.002394,14.1438,2005
1144,0.024686,14.1488,2005
1145,0.006589,14.1488,2005
1146,0.020683,14.1538,2005
1147,-0.002193,14.1537,2005
1148,0.016998,14.1588,2005
1149,0.006542,14.1588,2005
1150,0.008885,14.1631,2005
1151,0.007211,14.1631,2005
1152,0.022530,14.1688,2005
1153,0.008796,14.1688,2005
1154,0.017545,14.1738,2005
1155,0.000566,14.1737,2005
1156,0.015399,14.1788,2005
1157,0.005219,14.1788,2005
1158,0.009544,14.1831,2005
1159,0.010217,14.1831,2005
1160,0.020846,14.1888,2005
1161,0.013126,14.1888,2005
1162,0.020313,14.1938,2005
1163,-0.000706,14.1938,2005
1164,0.012710,14.1988,2005
1165,0.009656,14.1988,2005
1166,0.011246,14.2031,2005
1167,0.008118,14.2031,2005
1168,0.019004,14.2088,2005
1169,0.011784,14.2088,2005
1170,0.017101,14.2138,2005
1171,0.001272,14.2138,2005
1172,0.014898,14.2188,2006
1173,0.012158,14.2188,2006
1174,0.010549,14.2231,2006
1175,0.010718,14.2231,2006
1176,0.016273,14.2288,2006
1177,0.016834,14.2288,2006
1178,0.012340,14.2338,2006
1179,0.003428,14.2338,2006
1180,0.012051,14.2388,2006
1181,0.014707,14.2388,2006
1182,0.005766,14.2431,2006
1183,0.008866,14.2431,2006
1184,0.014660,14.2488,2006
1185,0.017559,14.2488,2006
1186,0.014080,14.2538,2006
1187,0.006392,14.2538,2006
1188,0.008960,14.2588,2006
1189,0.014309,14.2588,2006
1190,0.003325,14.2631,2006
1191,0.010311,14.2631,2006
1192,0.011377,14.2688,2006
1193,0.018003,14.2688,2006
1194,0.014641,14.2738,2006
1195,0.005948,14.2738,2006
1196,0.006402,14.2788,2006
1197,0.016376,14.2788,2006
1198,0.006640,14.2838,2006
1199,0.012228,14.2838,2006
1200,0.012406,14.2888,2006
1201,0.020084,14.2888,2006
1202,0.011812,14.2938,2006
1203,0.009362,14.2938,2006
1204,0.007024,14.2988,2006
1205,0.018031,14.2988,2006
1206,0.003516,14.3031,2006
1207,0.011906,14.3031,2006
1208,0.010194,14.3088,2006
1209,0.024134,14.3088,2006
1210,0.009404,14.3138,2006
1211,0.009567,14.3138,2006
1212,0.008085,14.3188,2006
1213,0.017162,14.3188,2006
1214,-0.000542,14.3231,2006
1215,0.013290,14.3231,2006
1216,0.006869,14.3288,2006
1217,0.018597,14.3288,2006
1218,0.007351,14.3338,2006
1219,0.006636,14.3338,2006
1220,-0.000206,14.3388,2006
1221,0.016647,14.3388,2006
1222,-0.002923,14.3437,2006
1223,0.012616,14.3438,2006
1224,0.007328,14.3488,2006
1225,0.022460,14.3488,2006
1226,0.003970,14.3538,2006
1227,0.008693,14.3538,2006
1228,0.002979,14.3588,2006
1229,0.023199,14.3588,2006
1230,-0.005597,14.3637,2006
1231,0.016797,14.3638,2006
1232,0.005780,14.3688,2006
1233,0.023409,14.3688,2006
1234,0.004424,14.3738,2006
1235,0.004989,14.3738,2006
1236,0.001618,14.3788,2006
1237,0.022539,14.3788,2006
1238,-0.006243,14.3837,2006
1239,0.020281,14.3838,2006
1240,0.001333,14.3888,2006
1241,0.022577,14.3888,2006
1242,0.007917,14.3938,2006
1243,0.009179,14.3938,2006
1244,0.003021,14.3988,2006
1245,0.026327,14.3988,2006
1246,-0.001286,14.4037,2006
1247,0.021417,14.4038,2006
1248,0.000613,14.4087,2006
1249,0.023998,14.4088,2006
1250,0.001379,14.4138,2006
1251,0.011022,14.4138,2006
1252,-0.002675,14.4187,2006
1253,0.025728,14.4188,2006
1254,-0.006425,14.4237,2006
1255,0.018522,14.4238,2006
1256,0.001669,14.4294,2006
1257,0.028922,14.4294,2006
1258,0.001431,14.4338,2006
1259,0.011480,14.4338,2006
1260,-0.003905,14.4387,2006
1261,0.026299,14.4388,2006
1262,-0.010704,14.4437,2006
1263,0.023479,14.4438,2006
1264,-0.000977,14.4487,2006
1265,0.029549,14.4488,2006
1266,0.000253,14.4538,2006
1267,0.013346,14.4538,2006
1268,-0.004536,14.4587,2006
1269,0.027281,14.4588,2006
1270,-0.011821,14.4637,2006
1271,0.022937,14.4638,2006
1272,-0.006336,14.4694,2006
1273,0.032878,14.4694,2006
1274,0.002539,14.4738,2006
1275,0.008249,14.4738,2006
1276,-0.006070,14.4787,2006
1277,0.029193,14.4788,2006
1278,-0.009483,14.4837,2006
1279,0.023091,14.4838,2006
1280,-0.006233,14.4887,2006
1321,0.040047,14.5888,2006
1322,-0.006883,14.5937,2006
1323,0.022726,14.5938,2006
1324,-0.011662,14.5987,2006
1325,0.028071,14.5988,2006
1326,-0.014618,14.6037,2006
1327,0.026650,14.6038,2006
1328,-0.017405,14.6087,2006
1329,0.042871,14.6088,2006
1330,-0.009380,14.6137,2006
1331,0.017713,14.6138,2006
1332,-0.009483,14.6187,2006
1333,0.035099,14.6188,2006
1334,-0.015857,14.6237,2006
1335,0.022997,14.6238,2006
1336,-0.016844,14.6287,2006
1337,0.042881,14.6288,2006
1338,-0.014075,14.6337,2006
1339,0.021160,14.6338,2006
1340,-0.011396,14.6387,2006
1341,0.032995,14.6388,2006
1342,-0.017059,14.6437,2006
1343,0.028356,14.6438,2006
1344,-0.018625,14.6487,2006
1345,0.043068,14.6488,2006
1346,-0.015380,14.6537,2006
1347,0.021838,14.6538,2006
1348,-0.017049,14.6587,2006
1349,0.029193,14.6588,2006
1393,0.046187,14.7688,2007
1394,-0.022544,14.7737,2007
1395,0.023245,14.7738,2007
1396,-0.022745,14.7787,2007
1397,0.035684,14.7788,2007
1398,-0.026009,14.7837,2007
1399,0.026986,14.7838,2007
1400,-0.031377,14.7887,2007
1401,0.043947,14.7888,2007
1402,-0.021768,14.7937,2007
1403,0.028459,14.7938,2007
1404,-0.026467,14.7987,2007
1405,0.037222,14.7988,2007
1406,-0.027019,14.8037,2007
1407,0.026673,14.8038,2007
1408,-0.028132,14.8087,2007
1409,0.048155,14.8088,2007
1410,-0.023058,14.8137,2007
1411,0.023203,14.8138,2007
1412,-0.026219,14.8187,2007
1413,0.036502,14.8188,2007
1414,-0.024036,14.8237,2007
1415,0.028375,14.8238,2007
1416,-0.030348,14.8287,2007
1417,0.039079,14.8288,2007
1418,-0.026930,14.8337,2007
1419,0.028441,14.8338,2007
1420,-0.023255,14.8387,2007
1421,0.040098,14.8388,2007
1465,0.045943,14.9488,2007
1466,-0.029137,14.9537,2007
1467,0.030381,14.9538,2007
1468,-0.027136,14.9587,2007
1469,0.037910,14.9588,2007
1470,-0.030708,14.9631,2007
1471,0.028221,14.9631,2007
1472,-0.042722,14.9687,2007
1473,0.047351,14.9688,2007
1474,-0.031545,14.9737,2007
1475,0.028950,14.9738,2007
1476,-0.024784,14.9787,2007
1477,0.034281,14.9788,2007
1478,-0.033561,14.9831,2007
1479,0.025036,14.9831,2007
1480,-0.036755,14.9887,2007
1481,0.046070,14.9888,2007
1482,-0.032551,14.9937,2007
1483,0.025186,14.9938,2007
1484,-0.028609,14.9987,2007
1485,0.031503,14.9988,2007
