Point No.,Normal Force [N],Gap [mm],Time [s]
1.0,-0.007178,18.0313,1911
2.0,-0.013335,18.0332,1911
3.0,-0.009374,18.0284,1911
4.0,-0.011620,18.0232,1911
5.0,-0.013003,18.0182,1911
6.0,-0.011313,18.0132,1911
7.0,-0.013710,18.0082,1911
8.0,-0.011541,18.0032,1911
9.0,-0.011508,17.9982,1911
10.0,-0.012382,17.9932,1911
11.0,-0.012646,17.9879,1911
12.0,-0.011417,17.9829,1911
13.0,-0.012029,17.9783,1911
14.0,-0.011367,17.9728,1911
15.0,-0.011275,17.9679,1911
16.0,-0.011635,17.9628,1912
17.0,-0.010928,17.9583,1912
18.0,-0.012747,17.9528,1912
19.0,-0.012224,17.9477,1912
20.0,-0.012230,17.9430,1912
21.0,-0.009611,17.9382,1912
22.0,-0.009392,17.9334,1912
23.0,-0.012140,17.9282,1912
24.0,-0.012196,17.9232,1912
25.0,-0.010539,17.9182,1912
26.0,-0.011192,17.9134,1912
27.0,-0.010221,17.9078,1912
28.0,-0.012155,17.9029,1912
29.0,-0.010861,17.8981,1912
30.0,-0.010747,17.8929,1912
31.0,-0.011946,17.8878,1912
32.0,-0.011715,17.8828,1912
33.0,-0.010944,17.8778,1912
34.0,-0.010570,17.8728,1912
35.0,-0.010996,17.8678,1912
36.0,-0.010657,17.8628,1913
37.0,-0.009088,17.8578,1913
38.0,-0.011045,17.8528,1913
39.0,-0.010117,17.8478,1913
40.0,-0.008860,17.8428,1913
41.0,-0.010362,17.8378,1913
42.0,-0.010062,17.8328,1913
43.0,-0.009276,17.8272,1913
44.0,-0.010518,17.8219,1913
45.0,-0.009476,17.8169,1913
46.0,-0.010627,17.8119,1913
47.0,-0.010018,17.8068,1913
48.0,-0.009804,17.8019,1913
49.0,-0.010201,17.7969,1913
50.0,-0.009620,17.7919,1913
51.0,-0.011075,17.7869,1913
52.0,-0.011110,17.7817,1913
53.0,-0.011118,17.7771,1913
54.0,-0.012133,17.7717,1913
55.0,-0.011408,17.7667,1913
56.0,-0.010524,17.7616,1914
57.0,-0.010846,17.7569,1914
58.0,-0.011190,17.7516,1914
59.0,-0.013498,17.7465,1914
60.0,-0.011798,17.7416,1914
61.0,-0.011329,17.7367,1914
62.0,-0.012642,17.7318,1914
63.0,-0.011337,17.7266,1914
64.0,-0.012035,17.7216,1914
65.0,-0.011240,17.7166,1914
66.0,-0.011802,17.7118,1914
67.0,-0.011203,17.7066,1914
68.0,-0.011063,17.7018,1914
69.0,-0.012654,17.6972,1914
70.0,-0.011869,17.6922,1914
71.0,-0.009945,17.6870,1914
72.0,-0.010456,17.6820,1914
73.0,-0.009979,17.6770,1914
74.0,-0.011317,17.6720,1914
75.0,-0.009104,17.6670,1914
76.0,-0.009458,17.6620,1915
77.0,-0.008628,17.6570,1915
78.0,-0.010754,17.6520,1915
79.0,-0.009599,17.6470,1915
80.0,-0.008721,17.6418,1915
81.0,-0.009638,17.6370,1915
82.0,-0.009025,17.6318,1915
83.0,-0.008331,17.6268,1915
84.0,-0.008417,17.6215,1915
85.0,-0.008302,17.6168,1915
86.0,-0.008797,17.6115,1915
87.0,-0.009952,17.6066,1915
88.0,-0.010694,17.6016,1915
89.0,-0.010604,17.5966,1915
90.0,-0.009023,17.5916,1915
91.0,-0.010906,17.5866,1915
92.0,-0.010546,17.5813,1915
93.0,-0.011339,17.5767,1915
94.0,-0.011238,17.5713,1915
95.0,-0.012257,17.5663,1915
96.0,-0.009898,17.5614,1916
97.0,-0.009962,17.5565,1916
98.0,-0.009715,17.5512,1916
99.0,-0.010091,17.5462,1916
100.0,-0.009908,17.5412,1916
101.0,-0.008847,17.5362,1916
102.0,-0.009375,17.5313,1916
103.0,-0.009816,17.5262,1916
104.0,-0.009271,17.5212,1916
105.0,-0.009463,17.5163,1916
106.0,-0.011229,17.5113,1916
107.0,-0.008945,17.5063,1916
108.0,-0.010167,17.5013,1916
109.0,-0.008040,17.4963,1916
110.0,-0.009809,17.4911,1916
111.0,-0.009394,17.4863,1916
112.0,-0.009749,17.4811,1916
113.0,-0.011153,17.4763,1916
114.0,-0.010722,17.4711,1916
115.0,-0.009013,17.4660,1916
116.0,-0.011068,17.4610,1917
117.0,-0.010445,17.4562,1917
118.0,-0.011698,17.4510,1917
119.0,-0.010516,17.4460,1917
120.0,-0.012550,17.4410,1917
121.0,-0.011184,17.4362,1917
122.0,-0.012151,17.4310,1917
123.0,-0.011592,17.4260,1917
124.0,-0.012498,17.4210,1917
125.0,-0.012630,17.4162,1917
126.0,-0.012667,17.4107,1917
127.0,-0.012541,17.4060,1917
128.0,-0.011056,17.4007,1917
129.0,-0.012756,17.3962,1917
130.0,-0.012926,17.3907,1917
131.0,-0.012818,17.3857,1917
132.0,-0.013350,17.3807,1917
133.0,-0.011017,17.3762,1917
134.0,-0.012585,17.3707,1917
135.0,-0.012025,17.3657,1917
136.0,-0.012768,17.3607,1918
137.0,-0.011832,17.3560,1918
138.0,-0.013239,17.3507,1918
139.0,-0.011397,17.3457,1918
140.0,-0.011660,17.3407,1918
141.0,-0.011460,17.3360,1918
142.0,-0.011848,17.3307,1918
143.0,-0.009696,17.3257,1918
144.0,-0.011886,17.3206,1918
145.0,-0.011849,17.3160,1918
146.0,-0.011730,17.3106,1918
147.0,-0.012264,17.3057,1918
148.0,-0.011950,17.3007,1918
149.0,-0.012552,17.2961,1918
150.0,-0.010984,17.2907,1918
151.0,-0.011108,17.2857,1918
152.0,-0.012483,17.2807,1918
153.0,-0.012873,17.2759,1918
154.0,-0.013312,17.2707,1918
155.0,-0.012556,17.2657,1918
156.0,-0.013144,17.2607,1919
157.0,-0.011229,17.2559,1919
158.0,-0.010807,17.2507,1919
159.0,-0.011045,17.2457,1919
160.0,-0.011243,17.2407,1919
161.0,-0.012189,17.2359,1919
162.0,-0.010553,17.2304,1919
163.0,-0.010950,17.2257,1919
164.0,-0.010213,17.2207,1919
165.0,-0.009723,17.2159,1919
166.0,-0.009112,17.2103,1919
167.0,-0.010528,17.2055,1919
168.0,-0.009544,17.2005,1919
169.0,-0.009407,17.1957,1919
170.0,-0.009338,17.1903,1919
171.0,-0.009145,17.1855,1919
172.0,-0.008456,17.1805,1919
173.0,-0.008339,17.1755,1919
174.0,-0.008815,17.1705,1919
175.0,-0.008521,17.1655,1919
176.0,-0.007740,17.1605,1920
177.0,-0.010067,17.1556,1920
178.0,-0.009496,17.1503,1920
179.0,-0.009592,17.1455,1920
180.0,-0.011626,17.1403,1920
181.0,-0.011183,17.1355,1920
182.0,-0.009071,17.1300,1920
183.0,-0.009164,17.1255,1920
184.0,-0.009654,17.1203,1920
185.0,-0.011324,17.1155,1920
186.0,-0.011598,17.1100,1920
187.0,-0.011497,17.1053,1920
188.0,-0.011118,17.1003,1920
189.0,-0.012259,17.0954,1920
190.0,-0.013762,17.0904,1920
191.0,-0.010614,17.0854,1920
192.0,-0.010684,17.0804,1920
193.0,-0.012047,17.0754,1920
194.0,-0.012291,17.0703,1920
195.0,-0.011245,17.0653,1920
196.0,-0.010923,17.0603,1921
197.0,-0.011150,17.0553,1921
198.0,-0.012555,17.0494,1921
199.0,-0.011485,17.0444,1921
200.0,-0.010761,17.0394,1921
201.0,-0.009345,17.0347,1921
202.0,-0.011491,17.0293,1921
203.0,-0.010688,17.0244,1921
204.0,-0.009385,17.0194,1921
205.0,-0.008227,17.0144,1921
206.0,-0.011273,17.0093,1921
207.0,-0.008244,17.0043,1921
208.0,-0.010041,16.9994,1921
209.0,-0.008291,16.9944,1921
210.0,-0.010191,16.9891,1921
211.0,-0.008624,16.9844,1921
212.0,-0.009549,16.9792,1921
213.0,-0.008190,16.9744,1921
214.0,-0.009909,16.9691,1921
215.0,-0.009843,16.9641,1921
216.0,-0.010363,16.9592,1922
217.0,-0.008834,16.9542,1922
218.0,-0.011149,16.9491,1922
219.0,-0.008347,16.9448,1922
220.0,-0.009930,16.9397,1922
221.0,-0.010605,16.9347,1922
222.0,-0.009829,16.9297,1922
223.0,-0.009804,16.9247,1922
224.0,-0.010990,16.9197,1922
225.0,-0.011811,16.9147,1922
226.0,-0.012898,16.9093,1922
227.0,-0.011702,16.9047,1922
228.0,-0.011467,16.8995,1922
229.0,-0.010009,16.8946,1922
230.0,-0.010843,16.8893,1922
231.0,-0.012112,16.8846,1922
232.0,-0.011890,16.8796,1922
233.0,-0.011583,16.8746,1922
234.0,-0.009316,16.8693,1922
235.0,-0.008651,16.8646,1922
236.0,-0.008309,16.8596,1923
237.0,-0.009988,16.8546,1923
238.0,-0.009368,16.8493,1923
239.0,-0.007945,16.8444,1923
240.0,-0.009162,16.8387,1923
241.0,-0.008795,16.8337,1923
242.0,-0.008050,16.8287,1923
243.0,-0.009084,16.8237,1923
244.0,-0.008896,16.8187,1923
245.0,-0.006869,16.8137,1923
246.0,-0.006514,16.8084,1923
247.0,-0.008620,16.8034,1923
248.0,-0.007008,16.7984,1923
249.0,-0.007446,16.7937,1923
250.0,-0.006635,16.7884,1923
251.0,-0.008722,16.7834,1923
252.0,-0.009536,16.7784,1923
253.0,-0.009776,16.7734,1923
254.0,-0.009938,16.7681,1923
255.0,-0.010797,16.7633,1923
256.0,-0.010074,16.7581,1924
257.0,-0.012403,16.7534,1924
258.0,-0.012466,16.7481,1924
259.0,-0.012791,16.7431,1924
260.0,-0.011621,16.7381,1924
261.0,-0.012918,16.7331,1924
262.0,-0.012251,16.7281,1924
263.0,-0.012923,16.7231,1924
264.0,-0.011644,16.7181,1924
265.0,-0.012615,16.7131,1924
266.0,-0.013442,16.7078,1924
267.0,-0.011021,16.7031,1924
268.0,-0.013165,16.6981,1924
269.0,-0.012107,16.6931,1924
270.0,-0.011745,16.6875,1924
271.0,-0.011336,16.6828,1924
272.0,-0.011433,16.6778,1924
273.0,-0.010019,16.6731,1924
274.0,-0.009750,16.6678,1924
275.0,-0.010314,16.6631,1924
276.0,-0.010324,16.6581,1925
277.0,-0.008944,16.6531,1925
278.0,-0.008915,16.6478,1925
279.0,-0.006657,16.6431,1925
280.0,-0.009103,16.6378,1925
281.0,-0.008803,16.6331,1925
282.0,-0.008652,16.6284,1925
283.0,-0.009852,16.6234,1925
284.0,-0.011225,16.6184,1925
285.0,-0.009582,16.6134,1925
286.0,-0.007755,16.6084,1925
287.0,-0.007911,16.6034,1925
288.0,-0.008896,16.5984,1925
289.0,-0.009930,16.5934,1925
290.0,-0.011228,16.5882,1925
291.0,-0.009292,16.5832,1925
292.0,-0.011667,16.5782,1925
293.0,-0.010407,16.5732,1925
294.0,-0.010487,16.5682,1925
295.0,-0.010294,16.5632,1925
296.0,-0.012835,16.5582,1926
297.0,-0.013206,16.5532,1926
298.0,-0.012725,16.5478,1926
299.0,-0.012607,16.5428,1926
300.0,-0.012159,16.5378,1926
301.0,-0.013136,16.5329,1926
302.0,-0.012549,16.5278,1926
303.0,-0.010931,16.5228,1926
304.0,-0.012197,16.5178,1926
305.0,-0.011181,16.5128,1926
306.0,-0.012549,16.5078,1926
307.0,-0.011866,16.5028,1926
308.0,-0.012545,16.4978,1926
309.0,-0.012295,16.4928,1926
310.0,-0.013082,16.4878,1926
311.0,-0.010359,16.4828,1926
312.0,-0.011126,16.4778,1926
313.0,-0.012568,16.4728,1926
314.0,-0.012647,16.4674,1926
315.0,-0.010677,16.4628,1926
316.0,-0.010501,16.4578,1927
317.0,-0.010723,16.4528,1927
318.0,-0.011736,16.4476,1927
319.0,-0.009506,16.4428,1927
320.0,-0.009243,16.4378,1927
321.0,-0.010101,16.4328,1927
322.0,-0.010442,16.4276,1927
323.0,-0.009703,16.4228,1927
324.0,-0.009355,16.4171,1927
325.0,-0.011079,16.4119,1927
326.0,-0.012240,16.4068,1927
327.0,-0.012285,16.4018,1927
328.0,-0.011095,16.3970,1927
329.0,-0.012345,16.3919,1927
330.0,-0.011864,16.3868,1927
331.0,-0.012395,16.3818,1927
332.0,-0.011786,16.3770,1927
333.0,-0.011378,16.3718,1927
334.0,-0.012130,16.3666,1927
335.0,-0.012881,16.3618,1927
336.0,-0.012199,16.3570,1928
337.0,-0.014039,16.3518,1928
338.0,-0.011981,16.3466,1928
339.0,-0.011301,16.3416,1928
340.0,-0.012752,16.3368,1928
341.0,-0.012347,16.3318,1928
342.0,-0.012408,16.3266,1928
343.0,-0.011574,16.3216,1928
344.0,-0.012133,16.3168,1928
345.0,-0.013206,16.3118,1928
346.0,-0.013346,16.3063,1928
347.0,-0.011585,16.3014,1928
348.0,-0.011757,16.2966,1928
349.0,-0.011904,16.2915,1928
350.0,-0.010010,16.2865,1928
351.0,-0.010522,16.2813,1928
352.0,-0.009140,16.2763,1928
353.0,-0.011216,16.2715,1928
354.0,-0.010369,16.2663,1928
355.0,-0.010216,16.2613,1928
356.0,-0.011137,16.2563,1929
357.0,-0.010591,16.2515,1929
358.0,-0.009886,16.2465,1929
359.0,-0.010223,16.2415,1929
360.0,-0.010359,16.2365,1929
361.0,-0.011971,16.2313,1929
362.0,-0.009603,16.2263,1929
363.0,-0.010779,16.2213,1929
364.0,-0.010095,16.2165,1929
365.0,-0.012113,16.2111,1929
366.0,-0.009644,16.2069,1929
367.0,-0.009654,16.2019,1929
368.0,-0.011717,16.1971,1929
369.0,-0.011435,16.1920,1929
370.0,-0.012491,16.1869,1929
371.0,-0.011229,16.1819,1929
372.0,-0.012070,16.1771,1929
373.0,-0.012313,16.1719,1929
374.0,-0.011215,16.1670,1929
375.0,-0.009761,16.1620,1929
376.0,-0.010980,16.1573,1930
377.0,-0.011498,16.1519,1930
378.0,-0.010867,16.1470,1930
379.0,-0.010869,16.1419,1930
380.0,-0.012034,16.1373,1930
381.0,-0.011523,16.1322,1930
382.0,-0.011640,16.1269,1930
383.0,-0.013258,16.1219,1930
384.0,-0.012278,16.1169,1930
385.0,-0.012904,16.1119,1930
386.0,-0.012827,16.1069,1930
387.0,-0.011300,16.1013,1930
388.0,-0.013123,16.0963,1930
389.0,-0.012939,16.0913,1930
390.0,-0.011817,16.0863,1930
391.0,-0.013205,16.0813,1930
392.0,-0.013055,16.0763,1930
393.0,-0.012234,16.0710,1930
394.0,-0.013383,16.0658,1930
395.0,-0.012335,16.0608,1930
396.0,-0.012574,16.0563,1931
397.0,-0.013146,16.0508,1931
398.0,-0.011821,16.0458,1931
399.0,-0.012123,16.0409,1931
400.0,-0.010844,16.0362,1931
401.0,-0.010830,16.0310,1931
402.0,-0.011473,16.0260,1931
403.0,-0.011706,16.0210,1931
404.0,-0.009440,16.0162,1931
405.0,-0.010236,16.0110,1931
406.0,-0.010109,16.0060,1931
407.0,-0.008444,16.0010,1931
408.0,-0.010762,15.9962,1931
409.0,-0.010220,15.9909,1931
410.0,-0.010487,15.9859,1931
411.0,-0.012177,15.9809,1931
412.0,-0.010946,15.9760,1931
413.0,-0.011348,15.9709,1931
414.0,-0.010666,15.9659,1931
415.0,-0.011798,15.9609,1931
416.0,-0.011472,15.9560,1932
417.0,-0.012245,15.9509,1932
418.0,-0.011881,15.9459,1932
419.0,-0.012184,15.9409,1932
420.0,-0.012272,15.9359,1932
421.0,-0.012807,15.9306,1932
422.0,-0.013252,15.9259,1932
423.0,-0.013883,15.9204,1932
424.0,-0.012985,15.9159,1932
425.0,-0.013006,15.9104,1932
426.0,-0.013008,15.9054,1932
427.0,-0.013206,15.9004,1932
428.0,-0.013027,15.8957,1932
429.0,-0.013857,15.8909,1932
430.0,-0.012427,15.8860,1932
431.0,-0.013668,15.8810,1932
432.0,-0.010685,15.8762,1932
433.0,-0.013641,15.8710,1932
434.0,-0.013502,15.8660,1932
435.0,-0.013172,15.8610,1932
436.0,-0.013161,15.8562,1933
437.0,-0.012928,15.8507,1933
438.0,-0.012933,15.8459,1933
439.0,-0.011900,15.8409,1933
440.0,-0.013037,15.8359,1933
441.0,-0.012909,15.8308,1933
442.0,-0.011424,15.8261,1933
443.0,-0.011504,15.8211,1933
444.0,-0.010668,15.8161,1933
445.0,-0.012391,15.8108,1933
446.0,-0.011033,15.8061,1933
447.0,-0.013460,15.8011,1933
448.0,-0.011496,15.7961,1933
449.0,-0.011409,15.7906,1933
450.0,-0.012216,15.7853,1933
451.0,-0.011385,15.7799,1933
452.0,-0.011927,15.7755,1933
453.0,-0.011597,15.7699,1933
454.0,-0.010785,15.7649,1933
455.0,-0.011579,15.7599,1933
456.0,-0.013434,15.7552,1934
457.0,-0.012510,15.7499,1934
458.0,-0.011597,15.7449,1934
459.0,-0.013174,15.7399,1934
460.0,-0.012019,15.7352,1934
461.0,-0.010795,15.7298,1934
462.0,-0.012798,15.7249,1934
463.0,-0.011193,15.7198,1934
464.0,-0.010856,15.7152,1934
465.0,-0.010137,15.7098,1934
466.0,-0.010363,15.7048,1934
467.0,-0.010309,15.6998,1934
468.0,-0.010192,15.6951,1934
469.0,-0.010149,15.6898,1934
470.0,-0.009144,15.6848,1934
471.0,-0.009988,15.6804,1934
472.0,-0.009511,15.6755,1934
473.0,-0.007746,15.6702,1934
474.0,-0.009650,15.6655,1934
475.0,-0.008951,15.6602,1934
476.0,-0.007771,15.6555,1935
477.0,-0.009256,15.6499,1935
478.0,-0.009700,15.6452,1935
479.0,-0.009431,15.6402,1935
480.0,-0.011205,15.6355,1935
481.0,-0.009633,15.6299,1935
482.0,-0.009858,15.6249,1935
483.0,-0.010586,15.6200,1935
484.0,-0.010120,15.6154,1935
485.0,-0.010014,15.6101,1935
486.0,-0.010704,15.6051,1935
487.0,-0.009566,15.6001,1935
488.0,-0.011254,15.5954,1935
489.0,-0.010846,15.5897,1935
490.0,-0.011241,15.5849,1935
491.0,-0.012311,15.5799,1935
492.0,-0.012296,15.5749,1935
493.0,-0.011734,15.5691,1935
494.0,-0.012466,15.5643,1935
495.0,-0.011740,15.5591,1935
496.0,-0.013229,15.5546,1936
497.0,-0.011909,15.5491,1936
498.0,-0.011724,15.5441,1936
499.0,-0.011729,15.5391,1936
500.0,-0.012586,15.5343,1936
501.0,-0.011828,15.5291,1936
502.0,-0.010101,15.5243,1936
503.0,-0.011336,15.5191,1936
504.0,-0.009819,15.5143,1936
505.0,-0.010958,15.5091,1936
506.0,-0.009415,15.5043,1936
507.0,-0.010526,15.4991,1936
508.0,-0.009022,15.4943,1936
509.0,-0.010622,15.4888,1936
510.0,-0.010826,15.4841,1936
511.0,-0.009994,15.4791,1936
512.0,-0.009230,15.4741,1936
513.0,-0.011183,15.4686,1936
514.0,-0.009609,15.4641,1936
515.0,-0.009693,15.4591,1936
516.0,-0.008058,15.4541,1937
517.0,-0.009459,15.4486,1937
518.0,-0.009622,15.4439,1937
519.0,-0.010360,15.4389,1937
520.0,-0.010795,15.4342,1937
521.0,-0.010577,15.4285,1937
522.0,-0.011462,15.4239,1937
523.0,-0.011685,15.4187,1937
524.0,-0.010306,15.4139,1937
525.0,-0.012088,15.4086,1937
526.0,-0.012280,15.4039,1937
527.0,-0.012112,15.3986,1937
528.0,-0.011482,15.3941,1937
529.0,-0.012753,15.3886,1937
530.0,-0.013421,15.3836,1937
531.0,-0.013252,15.3786,1937
532.0,-0.012020,15.3738,1937
533.0,-0.011166,15.3686,1937
534.0,-0.012162,15.3641,1937
535.0,-0.012797,15.3593,1937
536.0,-0.012506,15.3545,1938
537.0,-0.011270,15.3490,1938
538.0,-0.012309,15.3445,1938
539.0,-0.011341,15.3393,1938
540.0,-0.009378,15.3345,1938
541.0,-0.010067,15.3290,1938
542.0,-0.009396,15.3245,1938
543.0,-0.010914,15.3193,1938
544.0,-0.008919,15.3145,1938
545.0,-0.009083,15.3088,1938
546.0,-0.007500,15.3041,1938
547.0,-0.006245,15.2991,1938
548.0,-0.010141,15.2943,1938
549.0,-0.008444,15.2888,1938
550.0,-0.009421,15.2841,1938
551.0,-0.009123,15.2791,1938
552.0,-0.008360,15.2741,1938
553.0,-0.009329,15.2688,1938
554.0,-0.008453,15.2641,1938
555.0,-0.009034,15.2587,1938
556.0,-0.008512,15.2535,1939
557.0,-0.010325,15.2482,1939
558.0,-0.009251,15.2432,1939
559.0,-0.012004,15.2382,1939
560.0,-0.011989,15.2332,1939
561.0,-0.009911,15.2282,1939
562.0,-0.012947,15.2232,1939
563.0,-0.012047,15.2184,1939
564.0,-0.013278,15.2133,1939
565.0,-0.011907,15.2080,1939
566.0,-0.013655,15.2032,1939
567.0,-0.012414,15.1983,1939
568.0,-0.013157,15.1934,1939
569.0,-0.011635,15.1882,1939
570.0,-0.012666,15.1832,1939
571.0,-0.012174,15.1782,1939
572.0,-0.011086,15.1734,1939
573.0,-0.013104,15.1682,1939
574.0,-0.010854,15.1632,1939
575.0,-0.011864,15.1582,1939
576.0,-0.010609,15.1533,1940
577.0,-0.011039,15.1478,1940
578.0,-0.009943,15.1428,1940
579.0,-0.009034,15.1381,1940
580.0,-0.009290,15.1333,1940
581.0,-0.010016,15.1278,1940
582.0,-0.009004,15.1228,1940
583.0,-0.008574,15.1182,1940
584.0,-0.008517,15.1128,1940
585.0,-0.009193,15.1078,1940
586.0,-0.007946,15.1028,1940
587.0,-0.008527,15.0978,1940
588.0,-0.009272,15.0928,1940
589.0,-0.009352,15.0878,1940
590.0,-0.008518,15.0828,1940
591.0,-0.008193,15.0779,1940
592.0,-0.009528,15.0728,1940
593.0,-0.008986,15.0675,1940
594.0,-0.009110,15.0628,1940
595.0,-0.010871,15.0578,1940
596.0,-0.009706,15.0528,1941
597.0,-0.009915,15.0475,1941
598.0,-0.009839,15.0425,1941
599.0,-0.011242,15.0379,1941
600.0,-0.010584,15.0328,1941
601.0,-0.011862,15.0273,1941
602.0,-0.009705,15.0225,1941
603.0,-0.012326,15.0178,1941
604.0,-0.012199,15.0128,1941
605.0,-0.012922,15.0073,1941
606.0,-0.013176,15.0023,1941
607.0,-0.013843,14.9975,1941
608.0,-0.013243,14.9922,1941
609.0,-0.012891,14.9873,1941
610.0,-0.011584,14.9824,1941
611.0,-0.012481,14.9778,1941
612.0,-0.011160,14.9725,1941
613.0,-0.011854,14.9673,1941
614.0,-0.011288,14.9625,1941
615.0,-0.011353,14.9575,1941
616.0,-0.012237,14.9525,1942
617.0,-0.012586,14.9473,1942
618.0,-0.010777,14.9422,1942
619.0,-0.010253,14.9373,1942
620.0,-0.010135,14.9325,1942
621.0,-0.009719,14.9269,1942
622.0,-0.009681,14.9220,1942
623.0,-0.008681,14.9175,1942
624.0,-0.009216,14.9122,1942
625.0,-0.010340,14.9069,1942
626.0,-0.010317,14.9019,1942
627.0,-0.010382,14.8972,1942
628.0,-0.011598,14.8919,1942
629.0,-0.011256,14.8869,1942
630.0,-0.011896,14.8819,1942
631.0,-0.011398,14.8769,1942
632.0,-0.011163,14.8719,1942
633.0,-0.012293,14.8669,1942
634.0,-0.014214,14.8619,1942
635.0,-0.012769,14.8569,1942
636.0,-0.014098,14.8519,1943
637.0,-0.014337,14.8466,1943
638.0,-0.013656,14.8416,1943
639.0,-0.015157,14.8367,1943
640.0,-0.013389,14.8316,1943
641.0,-0.011973,14.8266,1943
642.0,-0.013625,14.8216,1943
643.0,-0.014093,14.8167,1943
644.0,-0.014943,14.8116,1943
645.0,-0.014539,14.8066,1943
646.0,-0.014557,14.8013,1943
647.0,-0.014041,14.7966,1943
648.0,-0.014017,14.7913,1943
649.0,-0.013592,14.7863,1943
650.0,-0.013302,14.7813,1943
651.0,-0.014361,14.7766,1943
652.0,-0.013198,14.7716,1943
653.0,-0.011521,14.7665,1943
654.0,-0.012779,14.7616,1943
655.0,-0.011673,14.7566,1943
656.0,-0.011820,14.7516,1944
657.0,-0.011385,14.7465,1944
658.0,-0.013297,14.7415,1944
659.0,-0.010728,14.7365,1944
660.0,-0.010443,14.7314,1944
661.0,-0.009719,14.7265,1944
662.0,-0.011027,14.7215,1944
663.0,-0.009449,14.7165,1944
664.0,-0.012303,14.7112,1944
665.0,-0.011744,14.7062,1944
666.0,-0.012138,14.7012,1944
667.0,-0.012921,14.6962,1944
668.0,-0.012717,14.6912,1944
669.0,-0.012211,14.6862,1944
670.0,-0.011845,14.6812,1944
671.0,-0.012436,14.6762,1944
672.0,-0.011957,14.6712,1944
673.0,-0.012626,14.6662,1944
674.0,-0.012180,14.6609,1944
675.0,-0.013588,14.6562,1944
676.0,-0.013425,14.6509,1945
677.0,-0.012032,14.6459,1945
678.0,-0.014337,14.6409,1945
679.0,-0.013701,14.6362,1945
680.0,-0.013992,14.6309,1945
681.0,-0.013129,14.6258,1945
682.0,-0.012356,14.6208,1945
683.0,-0.013595,14.6161,1945
684.0,-0.012835,14.6108,1945
685.0,-0.012008,14.6058,1945
686.0,-0.015064,14.6006,1945
687.0,-0.012384,14.5958,1945
688.0,-0.013018,14.5906,1945
689.0,-0.012684,14.5856,1945
690.0,-0.011826,14.5806,1945
691.0,-0.011182,14.5761,1945
692.0,-0.012058,14.5706,1945
693.0,-0.010763,14.5656,1945
694.0,-0.012175,14.5607,1945
695.0,-0.013647,14.5557,1945
696.0,-0.011454,14.5507,1946
697.0,-0.011949,14.5457,1946
698.0,-0.011176,14.5407,1946
699.0,-0.010722,14.5357,1946
700.0,-0.011475,14.5307,1946
701.0,-0.011565,14.5257,1946
702.0,-0.012842,14.5207,1946
703.0,-0.011044,14.5157,1946
704.0,-0.011441,14.5105,1946
705.0,-0.012961,14.5056,1946
706.0,-0.012269,14.5005,1946
707.0,-0.011247,14.4957,1946
708.0,-0.011303,14.4904,1946
709.0,-0.011525,14.4854,1946
710.0,-0.012239,14.4804,1946
711.0,-0.012428,14.4756,1946
712.0,-0.012948,14.4704,1946
713.0,-0.014502,14.4656,1946
714.0,-0.011952,14.4604,1946
715.0,-0.012307,14.4556,1946
716.0,-0.012481,14.4504,1947
717.0,-0.013907,14.4456,1947
718.0,-0.012665,14.4401,1947
719.0,-0.013854,14.4356,1947
720.0,-0.014435,14.4301,1947
721.0,-0.011536,14.4251,1947
722.0,-0.012897,14.4201,1947
723.0,-0.012552,14.4156,1947
724.0,-0.013041,14.4101,1947
725.0,-0.011383,14.4051,1947
726.0,-0.012619,14.4001,1947
727.0,-0.012690,14.3956,1947
728.0,-0.012649,14.3901,1947
729.0,-0.013348,14.3851,1947
730.0,-0.013349,14.3801,1947
731.0,-0.011061,14.3754,1947
732.0,-0.011772,14.3701,1947
733.0,-0.012539,14.3651,1947
734.0,-0.011978,14.3599,1947
735.0,-0.011459,14.3554,1947
736.0,-0.013307,14.3500,1948
737.0,-0.011458,14.3450,1948
738.0,-0.011441,14.3400,1948
739.0,-0.012545,14.3355,1948
740.0,-0.011860,14.3300,1948
741.0,-0.012226,14.3250,1948
742.0,-0.014212,14.3200,1948
743.0,-0.013003,14.3155,1948
744.0,-0.011697,14.3100,1948
745.0,-0.013510,14.3050,1948
746.0,-0.011904,14.3000,1948
747.0,-0.013229,14.2953,1948
748.0,-0.011856,14.2900,1948
749.0,-0.011992,14.2850,1948
750.0,-0.011240,14.2800,1948
751.0,-0.010375,14.2753,1948
752.0,-0.010811,14.2700,1948
753.0,-0.013425,14.2650,1948
754.0,-0.011295,14.2600,1948
755.0,-0.012192,14.2553,1948
756.0,-0.011323,14.2496,1949
757.0,-0.010519,14.2450,1949
758.0,-0.011548,14.2399,1949
759.0,-0.011674,14.2353,1949
760.0,-0.010209,14.2299,1949
761.0,-0.012297,14.2249,1949
762.0,-0.010039,14.2199,1949
763.0,-0.011888,14.2149,1949
764.0,-0.010496,14.2099,1949
765.0,-0.010373,14.2049,1949
766.0,-0.010962,14.1999,1949
767.0,-0.010774,14.1949,1949
768.0,-0.010828,14.1899,1949
769.0,-0.010196,14.1849,1949
770.0,-0.013202,14.1799,1949
771.0,-0.012884,14.1749,1949
772.0,-0.011687,14.1696,1949
773.0,-0.012300,14.1649,1949
774.0,-0.012827,14.1596,1949
775.0,-0.013417,14.1549,1949
776.0,-0.012040,14.1496,1950
777.0,-0.012805,14.1446,1950
778.0,-0.013795,14.1398,1950
779.0,-0.012345,14.1350,1950
780.0,-0.014055,14.1298,1950
781.0,-0.013915,14.1248,1950
782.0,-0.013224,14.1198,1950
783.0,-0.011820,14.1150,1950
784.0,-0.012370,14.1097,1950
785.0,-0.013341,14.1048,1950
786.0,-0.014691,14.0997,1950
787.0,-0.012865,14.0950,1950
788.0,-0.012060,14.0894,1950
789.0,-0.012651,14.0844,1950
790.0,-0.011640,14.0794,1950
791.0,-0.011424,14.0749,1950
792.0,-0.012362,14.0694,1950
793.0,-0.010212,14.0644,1950
794.0,-0.011484,14.0594,1950
795.0,-0.012033,14.0547,1950
796.0,-0.011603,14.0493,1951
797.0,-0.010765,14.0444,1951
798.0,-0.012237,14.0394,1951
799.0,-0.011015,14.0344,1951
800.0,-0.011489,14.0293,1951
801.0,-0.012298,14.0244,1951
802.0,-0.010718,14.0194,1951
803.0,-0.010530,14.0144,1951
804.0,-0.011830,14.0091,1951
805.0,-0.011266,14.0044,1951
806.0,-0.011487,13.9992,1951
807.0,-0.011814,13.9944,1951
808.0,-0.013215,13.9891,1951
809.0,-0.012147,13.9842,1951
810.0,-0.013820,13.9792,1951
811.0,-0.012745,13.9742,1951
812.0,-0.012628,13.9691,1951
813.0,-0.011038,13.9641,1951
814.0,-0.013399,13.9591,1951
815.0,-0.011983,13.9541,1951
816.0,-0.013876,13.9491,1952
817.0,-0.013900,13.9441,1952
818.0,-0.013522,13.9391,1952
819.0,-0.011330,13.9341,1952
820.0,-0.015035,13.9289,1952
821.0,-0.014506,13.9240,1952
822.0,-0.015238,13.9191,1952
823.0,-0.012443,13.9143,1952
824.0,-0.012557,13.9090,1952
825.0,-0.013890,13.9040,1952
826.0,-0.013329,13.8991,1952
827.0,-0.012402,13.8940,1952
828.0,-0.013283,13.8887,1952
829.0,-0.012265,13.8840,1952
830.0,-0.011201,13.8788,1952
831.0,-0.010805,13.8740,1952
832.0,-0.010639,13.8687,1952
833.0,-0.010374,13.8637,1952
834.0,-0.010861,13.8587,1952
835.0,-0.011157,13.8537,1952
836.0,-0.010655,13.8484,1953
837.0,-0.010110,13.8437,1953
838.0,-0.011027,13.8387,1953
839.0,-0.010615,13.8337,1953
840.0,-0.012455,13.8284,1953
841.0,-0.011563,13.8234,1953
842.0,-0.009835,13.8184,1953
843.0,-0.010384,13.8137,1953
844.0,-0.010303,13.8084,1953
845.0,-0.013111,13.8034,1953
846.0,-0.012331,13.7984,1953
847.0,-0.010574,13.7936,1953
848.0,-0.012900,13.7881,1953
849.0,-0.012285,13.7831,1953
850.0,-0.014551,13.7781,1953
851.0,-0.015591,13.7731,1953
852.0,-0.013555,13.7681,1953
853.0,-0.014452,13.7631,1953
854.0,-0.013739,13.7581,1953
855.0,-0.013433,13.7531,1953
856.0,-0.012404,13.7481,1954
857.0,-0.013651,13.7431,1954
858.0,-0.013303,13.7381,1954
859.0,-0.013936,13.7331,1954
860.0,-0.014392,13.7278,1954
861.0,-0.012926,13.7231,1954
862.0,-0.012870,13.7183,1954
863.0,-0.012865,13.7134,1954
864.0,-0.013463,13.7078,1954
865.0,-0.012308,13.7031,1954
866.0,-0.013004,13.6981,1954
867.0,-0.012700,13.6931,1954
868.0,-0.011172,13.6878,1954
869.0,-0.010468,13.6831,1954
870.0,-0.012623,13.6781,1954
871.0,-0.012828,13.6731,1954
872.0,-0.010200,13.6678,1954
873.0,-0.009808,13.6628,1954
874.0,-0.011506,13.6578,1954
875.0,-0.010941,13.6531,1954
876.0,-0.010747,13.6477,1955
877.0,-0.010306,13.6428,1955
878.0,-0.011023,13.6378,1955
879.0,-0.010075,13.6328,1955
880.0,-0.011228,13.6274,1955
881.0,-0.009366,13.6228,1955
882.0,-0.010873,13.6175,1955
883.0,-0.009634,13.6128,1955
884.0,-0.011721,13.6074,1955
885.0,-0.009536,13.6025,1955
886.0,-0.011763,13.5975,1955
887.0,-0.009534,13.5925,1955
888.0,-0.014421,13.5872,1955
889.0,-0.013469,13.5823,1955
890.0,-0.012722,13.5774,1955
891.0,-0.012427,13.5723,1955
892.0,-0.012985,13.5672,1955
893.0,-0.012884,13.5622,1955
894.0,-0.011881,13.5572,1955
895.0,-0.011406,13.5522,1955
896.0,-0.013832,13.5472,1956
897.0,-0.013316,13.5422,1956
898.0,-0.013170,13.5372,1956
899.0,-0.013474,13.5323,1956
900.0,-0.013777,13.5271,1956
901.0,-0.013960,13.5222,1956
902.0,-0.013449,13.5171,1956
903.0,-0.012911,13.5119,1956
904.0,-0.012426,13.5072,1956
905.0,-0.012391,13.5022,1956
906.0,-0.012543,13.4972,1956
907.0,-0.012070,13.4924,1956
908.0,-0.012489,13.4870,1956
909.0,-0.012708,13.4821,1956
910.0,-0.010956,13.4770,1956
911.0,-0.011575,13.4719,1956
912.0,-0.011165,13.4670,1956
913.0,-0.011590,13.4621,1956
914.0,-0.011443,13.4570,1956
915.0,-0.010323,13.4519,1956
916.0,-0.011294,13.4468,1957
917.0,-0.011439,13.4419,1957
918.0,-0.011212,13.4370,1957
919.0,-0.012327,13.4319,1957
920.0,-0.012849,13.4268,1957
921.0,-0.014390,13.4218,1957
922.0,-0.013681,13.4168,1957
923.0,-0.012805,13.4118,1957
924.0,-0.013571,13.4066,1957
925.0,-0.014478,13.4018,1957
926.0,-0.013891,13.3968,1957
927.0,-0.014064,13.3918,1957
928.0,-0.012105,13.3866,1957
929.0,-0.011242,13.3816,1957
930.0,-0.011577,13.3766,1957
931.0,-0.012220,13.3718,1957
932.0,-0.012394,13.3666,1957
933.0,-0.012210,13.3616,1957
934.0,-0.013457,13.3566,1957
935.0,-0.012787,13.3516,1957
936.0,-0.012871,13.3463,1958
937.0,-0.012478,13.3413,1958
938.0,-0.013135,13.3366,1958
939.0,-0.013522,13.3313,1958
940.0,-0.012525,13.3263,1958
941.0,-0.012062,13.3213,1958
942.0,-0.012379,13.3163,1958
943.0,-0.012261,13.3113,1958
944.0,-0.010887,13.3063,1958
945.0,-0.011151,13.3013,1958
946.0,-0.009823,13.2964,1958
947.0,-0.012175,13.2915,1958
948.0,-0.011072,13.2865,1958
949.0,-0.010836,13.2813,1958
950.0,-0.011144,13.2765,1958
951.0,-0.011336,13.2713,1958
952.0,-0.010567,13.2663,1958
953.0,-0.010141,13.2613,1958
954.0,-0.009906,13.2565,1958
955.0,-0.011143,13.2513,1958
956.0,-0.010488,13.2461,1959
957.0,-0.012771,13.2411,1959
958.0,-0.010468,13.2363,1959
959.0,-0.010846,13.2311,1959
960.0,-0.010471,13.2263,1959
961.0,-0.011612,13.2211,1959
962.0,-0.011234,13.2163,1959
963.0,-0.010185,13.2111,1959
964.0,-0.011654,13.2063,1959
965.0,-0.012446,13.2013,1959
966.0,-0.012370,13.1963,1959
967.0,-0.013824,13.1911,1959
968.0,-0.013329,13.1863,1959
969.0,-0.013104,13.1810,1959
970.0,-0.012841,13.1765,1959
971.0,-0.012572,13.1709,1959
972.0,-0.012117,13.1659,1959
973.0,-0.012695,13.1609,1959
974.0,-0.012418,13.1565,1959
975.0,-0.012013,13.1509,1959
976.0,-0.012115,13.1461,1960
977.0,-0.012268,13.1409,1960
978.0,-0.013130,13.1361,1960
979.0,-0.011357,13.1309,1960
980.0,-0.012420,13.1261,1960
981.0,-0.013397,13.1211,1960
982.0,-0.010935,13.1161,1960
983.0,-0.012676,13.1109,1960
984.0,-0.013217,13.1061,1960
985.0,-0.011363,13.1007,1960
986.0,-0.013745,13.0961,1960
987.0,-0.011666,13.0907,1960
988.0,-0.012423,13.0857,1960
989.0,-0.012417,13.0808,1960
990.0,-0.012657,13.0758,1960
991.0,-0.013046,13.0708,1960
992.0,-0.014480,13.0658,1960
993.0,-0.013819,13.0608,1960
994.0,-0.013164,13.0560,1960
995.0,-0.013850,13.0508,1960
996.0,-0.014516,13.0458,1961
997.0,-0.014069,13.0408,1961
998.0,-0.013834,13.0358,1961
999.0,-0.014709,13.0305,1961
1000.0,-0.014899,13.0258,1961
1001.0,-0.015994,13.0208,1961
1002.0,-0.015095,13.0160,1961
1003.0,-0.014341,13.0104,1961
1004.0,-0.015579,13.0057,1961
1005.0,-0.015721,13.0007,1961
1006.0,-0.014938,12.9958,1961
1007.0,-0.015232,12.9904,1961
1008.0,-0.014626,12.9857,1961
1009.0,-0.014430,12.9807,1961
1010.0,-0.013249,12.9757,1961
1011.0,-0.016475,12.9707,1961
1012.0,-0.016679,12.9657,1961
1013.0,-0.015701,12.9607,1961
1014.0,-0.014502,12.9557,1961
1015.0,-0.016937,12.9501,1961
1016.0,-0.016546,12.9457,1962
1017.0,-0.014795,12.9401,1962
1018.0,-0.014029,12.9357,1962
1019.0,-0.016502,12.9301,1962
1020.0,-0.014259,12.9251,1962
1021.0,-0.015316,12.9201,1962
1022.0,-0.014839,12.9154,1962
1023.0,-0.014879,12.9103,1962
1024.0,-0.013429,12.9054,1962
1025.0,-0.015080,12.9001,1962
1026.0,-0.011951,12.8954,1962
1027.0,-0.014997,12.8901,1962
1028.0,-0.014673,12.8854,1962
1029.0,-0.012617,12.8801,1962
1030.0,-0.014522,12.8754,1962
1031.0,-0.014153,12.8702,1962
1032.0,-0.014834,12.8653,1962
1033.0,-0.013529,12.8603,1962
1034.0,-0.013436,12.8553,1962
1035.0,-0.014525,12.8503,1962
1036.0,-0.014569,12.8453,1963
1037.0,-0.014378,12.8403,1963
1038.0,-0.013439,12.8353,1963
1039.0,-0.014354,12.8300,1963
1040.0,-0.014347,12.8253,1963
1041.0,-0.013808,12.8203,1963
1042.0,-0.013496,12.8153,1963
1043.0,-0.012479,12.8097,1963
1044.0,-0.012883,12.8053,1963
1045.0,-0.013047,12.7997,1963
1046.0,-0.014186,12.7953,1963
1047.0,-0.013511,12.7897,1963
1048.0,-0.012262,12.7847,1963
1049.0,-0.012341,12.7797,1963
1050.0,-0.012578,12.7750,1963
1051.0,-0.011414,12.7697,1963
1052.0,-0.012843,12.7647,1963
1053.0,-0.012544,12.7597,1963
1054.0,-0.011312,12.7550,1963
1055.0,-0.012950,12.7496,1963
1056.0,-0.010955,12.7446,1964
1057.0,-0.011635,12.7396,1964
1058.0,-0.012137,12.7350,1964
1059.0,-0.011732,12.7296,1964
1060.0,-0.011346,12.7246,1964
1061.0,-0.012806,12.7196,1964
1062.0,-0.011700,12.7146,1964
1063.0,-0.012154,12.7096,1964
1064.0,-0.011742,12.7046,1964
1065.0,-0.012845,12.6996,1964
1066.0,-0.012985,12.6946,1964
1067.0,-0.011541,12.6896,1964
1068.0,-0.013798,12.6846,1964
1069.0,-0.013032,12.6793,1964
1070.0,-0.012799,12.6746,1964
1071.0,-0.013421,12.6691,1964
1072.0,-0.013417,12.6643,1964
1073.0,-0.014962,12.6593,1964
1074.0,-0.012725,12.6548,1964
1075.0,-0.014158,12.6493,1964
1076.0,-0.013056,12.6443,1965
1077.0,-0.012743,12.6393,1965
1078.0,-0.013933,12.6346,1965
1079.0,-0.013987,12.6293,1965
1080.0,-0.014543,12.6243,1965
1081.0,-0.013441,12.6193,1965
1082.0,-0.013237,12.6146,1965
1083.0,-0.013973,12.6090,1965
1084.0,-0.013984,12.6042,1965
1085.0,-0.013250,12.5989,1965
1086.0,-0.011720,12.5946,1965
1087.0,-0.010905,12.5890,1965
1088.0,-0.011948,12.5842,1965
1089.0,-0.011217,12.5790,1965
1090.0,-0.011333,12.5745,1965
1091.0,-0.011610,12.5690,1965
1092.0,-0.011595,12.5642,1965
1093.0,-0.011779,12.5590,1965
1094.0,-0.009643,12.5542,1965
1095.0,-0.012367,12.5490,1965
1096.0,-0.011855,12.5442,1966
1097.0,-0.012552,12.5392,1966
1098.0,-0.011641,12.5343,1966
1099.0,-0.012222,12.5290,1966
1100.0,-0.012866,12.5240,1966
1101.0,-0.012245,12.5190,1966
1102.0,-0.013551,12.5141,1966
1103.0,-0.014135,12.5089,1966
1104.0,-0.014710,12.5039,1966
1105.0,-0.014060,12.4990,1966
1106.0,-0.012185,12.4940,1966
1107.0,-0.015879,12.4887,1966
1108.0,-0.014892,12.4840,1966
1109.0,-0.015307,12.4787,1966
1110.0,-0.014001,12.4739,1966
1111.0,-0.013814,12.4687,1966
1112.0,-0.013585,12.4637,1966
1113.0,-0.013981,12.4587,1966
1114.0,-0.013350,12.4540,1966
1115.0,-0.014358,12.4487,1966
1116.0,-0.012863,12.4439,1967
1117.0,-0.013632,12.4387,1967
1118.0,-0.012105,12.4339,1967
1119.0,-0.014445,12.4285,1967
1120.0,-0.012590,12.4236,1967
1121.0,-0.011681,12.4185,1967
1122.0,-0.011597,12.4138,1967
1123.0,-0.013051,12.4085,1967
1124.0,-0.011854,12.4036,1967
1125.0,-0.011401,12.3986,1967
1126.0,-0.010940,12.3936,1967
1127.0,-0.011965,12.3885,1967
1128.0,-0.011596,12.3836,1967
1129.0,-0.011491,12.3786,1967
1130.0,-0.011317,12.3736,1967
1131.0,-0.013265,12.3685,1967
1132.0,-0.012640,12.3635,1967
1133.0,-0.011618,12.3585,1967
1134.0,-0.011337,12.3536,1967
1135.0,-0.012083,12.3483,1967
1136.0,-0.013580,12.3433,1968
1137.0,-0.013684,12.3385,1968
1138.0,-0.013591,12.3334,1968
1139.0,-0.013024,12.3283,1968
1140.0,-0.014273,12.3233,1968
1141.0,-0.015030,12.3183,1968
1142.0,-0.015978,12.3133,1968
1143.0,-0.015355,12.3083,1968
1144.0,-0.014414,12.3033,1968
1145.0,-0.013827,12.2983,1968
1146.0,-0.015139,12.2933,1968
1147.0,-0.015754,12.2880,1968
1148.0,-0.013671,12.2833,1968
1149.0,-0.014951,12.2780,1968
1150.0,-0.015515,12.2733,1968
1151.0,-0.014543,12.2680,1968
1152.0,-0.014066,12.2630,1968
1153.0,-0.014324,12.2582,1968
1154.0,-0.014361,12.2530,1968
1155.0,-0.012176,12.2478,1968
1156.0,-0.012739,12.2430,1969
1157.0,-0.012705,12.2382,1969
1158.0,-0.012398,12.2332,1969
1159.0,-0.012159,12.2280,1969
1160.0,-0.012046,12.2230,1969
1161.0,-0.011992,12.2180,1969
1162.0,-0.010899,12.2132,1969
1163.0,-0.010311,12.2080,1969
1164.0,-0.011197,12.2030,1969
1165.0,-0.010991,12.1980,1969
1166.0,-0.010343,12.1932,1969
1167.0,-0.010740,12.1876,1969
1168.0,-0.010609,12.1828,1969
1169.0,-0.010638,12.1780,1969
1170.0,-0.009376,12.1731,1969
1171.0,-0.011579,12.1676,1969
1172.0,-0.010630,12.1629,1969
1173.0,-0.010485,12.1579,1969
1174.0,-0.011740,12.1529,1969
1175.0,-0.013410,12.1476,1969
1176.0,-0.011333,12.1426,1970
1177.0,-0.012550,12.1376,1970
1178.0,-0.013015,12.1326,1970
1179.0,-0.014644,12.1276,1970
1180.0,-0.013258,12.1226,1970
1181.0,-0.014572,12.1178,1970
1182.0,-0.015334,12.1126,1970
1183.0,-0.017451,12.1073,1970
1184.0,-0.014620,12.1026,1970
1185.0,-0.014919,12.0976,1970
1186.0,-0.016000,12.0926,1970
1187.0,-0.015520,12.0873,1970
1188.0,-0.015236,12.0823,1970
1189.0,-0.014067,12.0776,1970
1190.0,-0.015437,12.0726,1970
1191.0,-0.014924,12.0673,1970
1192.0,-0.015393,12.0623,1970
1193.0,-0.014200,12.0576,1970
1194.0,-0.013925,12.0526,1970
1195.0,-0.014179,12.0471,1970
1196.0,-0.013654,12.0423,1971
1197.0,-0.012384,12.0374,1971
1198.0,-0.013682,12.0324,1971
1199.0,-0.011907,12.0273,1971
1200.0,-0.013013,12.0223,1971
1201.0,-0.011540,12.0175,1971
1202.0,-0.012123,12.0122,1971
1203.0,-0.014027,12.0070,1971
1204.0,-0.012851,12.0022,1971
1205.0,-0.013296,11.9973,1971
1206.0,-0.014067,11.9922,1971
1207.0,-0.014251,11.9870,1971
1208.0,-0.013666,11.9823,1971
1209.0,-0.012769,11.9773,1971
1210.0,-0.013851,11.9722,1971
1211.0,-0.013920,11.9670,1971
1212.0,-0.013187,11.9619,1971
1213.0,-0.013390,11.9573,1971
1214.0,-0.014855,11.9519,1971
1215.0,-0.014453,11.9467,1971
1216.0,-0.015511,11.9417,1972
1217.0,-0.014382,11.9369,1972
1218.0,-0.015919,11.9319,1972
1219.0,-0.016842,11.9267,1972
1220.0,-0.017182,11.9217,1972
1221.0,-0.015513,11.9167,1972
1222.0,-0.016134,11.9117,1972
1223.0,-0.016932,11.9067,1972
1224.0,-0.017994,11.9017,1972
1225.0,-0.017045,11.8967,1972
1226.0,-0.016196,11.8916,1972
1227.0,-0.015005,11.8864,1972
1228.0,-0.014321,11.8816,1972
1229.0,-0.016108,11.8767,1972
1230.0,-0.015827,11.8716,1972
1231.0,-0.016655,11.8663,1972
1232.0,-0.015481,11.8613,1972
1233.0,-0.015524,11.8564,1972
1234.0,-0.016967,11.8513,1972
1235.0,-0.015025,11.8464,1972
1236.0,-0.014040,11.8413,1973
1237.0,-0.016128,11.8364,1973
1238.0,-0.015416,11.8310,1973
1239.0,-0.014702,11.8261,1973
1240.0,-0.013813,11.8210,1973
1241.0,-0.014170,11.8166,1973
1242.0,-0.013448,11.8112,1973
1243.0,-0.013409,11.8063,1973
1244.0,-0.013935,11.8013,1973
1245.0,-0.013459,11.7966,1973
1246.0,-0.016282,11.7913,1973
1247.0,-0.014483,11.7862,1973
1248.0,-0.015492,11.7813,1973
1249.0,-0.014908,11.7762,1973
1250.0,-0.013657,11.7713,1973
1251.0,-0.013749,11.7662,1973
1252.0,-0.014941,11.7612,1973
1253.0,-0.014239,11.7562,1973
1254.0,-0.014888,11.7512,1973
1255.0,-0.015616,11.7459,1973
1256.0,-0.014303,11.7409,1974
1257.0,-0.014757,11.7360,1974
1258.0,-0.016439,11.7309,1974
1259.0,-0.016486,11.7259,1974
1260.0,-0.015750,11.7209,1974
1261.0,-0.016234,11.7160,1974
1262.0,-0.015846,11.7109,1974
1263.0,-0.017779,11.7059,1974
1264.0,-0.014952,11.7009,1974
1265.0,-0.015072,11.6960,1974
1266.0,-0.017291,11.6907,1974
1267.0,-0.015182,11.6857,1974
1268.0,-0.016143,11.6807,1974
1269.0,-0.015807,11.6760,1974
1270.0,-0.017074,11.6707,1974
1271.0,-0.016293,11.6656,1974
1272.0,-0.016217,11.6606,1974
1273.0,-0.015593,11.6556,1974
1274.0,-0.015311,11.6506,1974
1275.0,-0.016589,11.6456,1974
1276.0,-0.014523,11.6406,1975
1277.0,-0.014915,11.6356,1975
1278.0,-0.014349,11.6304,1975
1279.0,-0.014415,11.6256,1975
1280.0,-0.014063,11.6204,1975
1281.0,-0.014764,11.6156,1975
1282.0,-0.015326,11.6103,1975
1283.0,-0.015872,11.6056,1975
1284.0,-0.016467,11.6006,1975
1285.0,-0.014513,11.5956,1975
1286.0,-0.015357,11.5906,1975
1287.0,-0.014187,11.5856,1975
1288.0,-0.016407,11.5806,1975
1289.0,-0.016852,11.5756,1975
1290.0,-0.016187,11.5706,1975
1291.0,-0.015587,11.5656,1975
1292.0,-0.015957,11.5606,1975
1293.0,-0.018428,11.5556,1975
1294.0,-0.019059,11.5503,1975
1295.0,-0.017240,11.5456,1975
1296.0,-0.017865,11.5403,1976
1297.0,-0.018033,11.5356,1976
1298.0,-0.017218,11.5303,1976
1299.0,-0.017688,11.5252,1976
1300.0,-0.017188,11.5202,1976
1301.0,-0.017527,11.5155,1976
1302.0,-0.018264,11.5102,1976
1303.0,-0.017338,11.5052,1976
1304.0,-0.016662,11.5002,1976
1305.0,-0.016713,11.4955,1976
1306.0,-0.016164,11.4902,1976
1307.0,-0.016070,11.4852,1976
1308.0,-0.016508,11.4802,1976
1309.0,-0.016604,11.4755,1976
1310.0,-0.017314,11.4699,1976
1311.0,-0.015513,11.4649,1976
1312.0,-0.016376,11.4599,1976
1313.0,-0.014663,11.4555,1976
1314.0,-0.016628,11.4499,1976
1315.0,-0.014459,11.4449,1976
1316.0,-0.014862,11.4399,1977
1317.0,-0.015071,11.4352,1977
1318.0,-0.014694,11.4299,1977
1319.0,-0.014431,11.4249,1977
1320.0,-0.016549,11.4199,1977
1321.0,-0.017512,11.4149,1977
1322.0,-0.016305,11.4099,1977
1323.0,-0.016042,11.4049,1977
1324.0,-0.015695,11.3999,1977
1325.0,-0.017432,11.3954,1977
1326.0,-0.017745,11.3899,1977
1327.0,-0.017145,11.3849,1977
1328.0,-0.015282,11.3799,1977
1329.0,-0.018047,11.3754,1977
1330.0,-0.016683,11.3699,1977
1331.0,-0.016383,11.3649,1977
1332.0,-0.016303,11.3599,1977
1333.0,-0.015506,11.3554,1977
1334.0,-0.015583,11.3499,1977
1335.0,-0.016949,11.3449,1977
1336.0,-0.015078,11.3399,1978
1337.0,-0.015934,11.3349,1978
1338.0,-0.014669,11.3299,1978
1339.0,-0.014616,11.3249,1978
1340.0,-0.015533,11.3199,1978
1341.0,-0.017141,11.3151,1978
1342.0,-0.015087,11.3099,1978
1343.0,-0.014314,11.3049,1978
1344.0,-0.014988,11.2999,1978
1345.0,-0.016596,11.2951,1978
1346.0,-0.016112,11.2897,1978
1347.0,-0.015399,11.2849,1978
1348.0,-0.016127,11.2797,1978
1349.0,-0.016017,11.2751,1978
1350.0,-0.014662,11.2695,1978
1351.0,-0.016883,11.2647,1978
1352.0,-0.015790,11.2597,1978
1353.0,-0.016380,11.2547,1978
1354.0,-0.016657,11.2495,1978
1355.0,-0.016090,11.2447,1978
1356.0,-0.018242,11.2397,1979
1357.0,-0.018981,11.2347,1979
1358.0,-0.017645,11.2297,1979
1359.0,-0.018760,11.2247,1979
1360.0,-0.017458,11.2197,1979
1361.0,-0.017806,11.2147,1979
1362.0,-0.018110,11.2096,1979
1363.0,-0.019733,11.2047,1979
1364.0,-0.019335,11.1996,1979
1365.0,-0.018943,11.1947,1979
1366.0,-0.018694,11.1893,1979
1367.0,-0.018457,11.1846,1979
1368.0,-0.018585,11.1794,1979
1369.0,-0.019048,11.1749,1979
1370.0,-0.016990,11.1694,1979
1371.0,-0.017614,11.1646,1979
1372.0,-0.016176,11.1596,1979
1373.0,-0.015566,11.1546,1979
1374.0,-0.015341,11.1495,1979
1375.0,-0.014049,11.1446,1979
1376.0,-0.013015,11.1396,1980
1377.0,-0.013874,11.1346,1980
1378.0,-0.012255,11.1295,1980
1379.0,-0.012123,11.1245,1980
1380.0,-0.010023,11.1195,1980
1381.0,-0.008405,11.1145,1980
1382.0,-0.008477,11.1093,1980
1383.0,-0.006528,11.1043,1980
1384.0,-0.006496,11.0993,1980
1385.0,-0.004413,11.0945,1980
1386.0,-0.005136,11.0891,1980
1387.0,-0.002508,11.0843,1980
1388.0,-0.000809,11.0793,1980
1389.0,0.002247,11.0743,1980
1390.0,0.005103,11.0691,1980
1391.0,0.005171,11.0643,1980
1392.0,0.007145,11.0593,1980
1393.0,0.011455,11.0543,1980
1394.0,0.011008,11.0491,1980
1395.0,0.014760,11.0443,1980
1396.0,0.019007,11.0390,1981
1397.0,0.020344,11.0343,1981
1398.0,0.024454,11.0289,1981
1399.0,0.028349,11.0240,1981
1400.0,0.031512,11.0190,1981
1401.0,0.036929,11.0140,1981
1402.0,0.040703,11.0089,1981
1403.0,0.045408,11.0039,1981
1404.0,0.049433,10.9989,1981
1405.0,0.056552,10.9939,1981
1406.0,0.060634,10.9889,1981
1407.0,0.066023,10.9839,1981
1408.0,0.071816,10.9789,1981
1409.0,0.077754,10.9740,1981
1410.0,0.082675,10.9687,1981
1411.0,0.089299,10.9641,1981
1412.0,0.096712,10.9589,1981
1413.0,0.103061,10.9541,1981
1414.0,0.111244,10.9488,1981
1415.0,0.120330,10.9438,1981
1416.0,0.126967,10.9389,1982
1417.0,0.135939,10.9338,1982
1418.0,0.144326,10.9288,1982
1419.0,0.152928,10.9238,1982
1420.0,0.160753,10.9189,1982
1421.0,0.169733,10.9138,1982
1422.0,0.179314,10.9085,1982
1423.0,0.186464,10.9035,1982
1424.0,0.197478,10.8987,1982
1425.0,0.207688,10.8936,1982
1426.0,0.218832,10.8886,1982
1427.0,0.228933,10.8836,1982
1428.0,0.238430,10.8787,1982
1429.0,0.248399,10.8736,1982
1430.0,0.260589,10.8683,1982
1431.0,0.269696,10.8636,1982
1432.0,0.277890,10.8583,1982
1433.0,0.289231,10.8536,1982
1434.0,0.299893,10.8484,1982
1435.0,0.311250,10.8434,1982
1436.0,0.320348,10.8384,1983
1437.0,0.332942,10.8336,1983
1438.0,0.347358,10.8280,1983
1439.0,0.357847,10.8230,1983
1440.0,0.372597,10.8181,1983
1441.0,0.383787,10.8133,1983
1442.0,0.399902,10.8080,1983
1443.0,0.411750,10.8031,1983
1444.0,0.426290,10.7981,1983
1445.0,0.439176,10.7932,1983
1446.0,0.453616,10.7881,1983
1447.0,0.467836,10.7831,1983
1448.0,0.481844,10.7781,1983
1449.0,0.495751,10.7732,1983
1450.0,0.511420,10.7681,1983
1451.0,0.526311,10.7633,1983
1452.0,0.541817,10.7583,1983
1453.0,0.553896,10.7535,1983
1454.0,0.568192,10.7479,1983
1455.0,0.583699,10.7432,1983
1456.0,0.592238,10.7382,1984
1457.0,0.602270,10.7332,1984
1458.0,0.614842,10.7279,1984
1459.0,0.626271,10.7232,1984
1460.0,0.634138,10.7182,1984
1461.0,0.646747,10.7132,1984
1462.0,0.658913,10.7079,1984
1463.0,0.672082,10.7032,1984
1464.0,0.683763,10.6982,1984
1465.0,0.696442,10.6932,1984
1466.0,0.707220,10.6879,1984
1467.0,0.718718,10.6829,1984
1468.0,0.729042,10.6780,1984
1469.0,0.739006,10.6729,1984
1470.0,0.752626,10.6679,1984
1471.0,0.764169,10.6630,1984
1472.0,0.776417,10.6580,1984
1473.0,0.789874,10.6530,1984
1474.0,0.802098,10.6477,1984
1475.0,0.813174,10.6427,1984
1476.0,0.825320,10.6377,1985
1477.0,0.838042,10.6327,1985
1478.0,0.851675,10.6277,1985
1479.0,0.864831,10.6228,1985
1480.0,0.875857,10.6178,1985
1481.0,0.892323,10.6125,1985
1482.0,0.904905,10.6075,1985
1483.0,0.918439,10.6025,1985
1484.0,0.932312,10.5975,1985
1485.0,0.945625,10.5925,1985
1486.0,0.960628,10.5875,1985
1487.0,0.974286,10.5825,1985
1488.0,0.987549,10.5775,1985
1489.0,1.003591,10.5725,1985
1490.0,1.021782,10.5675,1985
1491.0,1.037766,10.5625,1985
1492.0,1.052139,10.5576,1985
1493.0,1.067635,10.5525,1985
1494.0,1.085873,10.5477,1985
1495.0,1.103118,10.5428,1985
1496.0,1.122379,10.5378,1986
1497.0,1.140156,10.5329,1986
1498.0,1.156933,10.5275,1986
1499.0,1.174191,10.5226,1986
1500.0,1.190235,10.5176,1986
1501.0,1.208465,10.5126,1986
1502.0,1.230545,10.5075,1986
1503.0,1.248878,10.5027,1986
1504.0,1.268559,10.4977,1986
1505.0,1.290293,10.4924,1986
1506.0,1.310908,10.4876,1986
1507.0,1.331072,10.4825,1986
1508.0,1.353047,10.4777,1986
1509.0,1.376449,10.4722,1986
1510.0,1.401089,10.4671,1986
1511.0,1.426554,10.4621,1986
1512.0,1.449365,10.4575,1986
1513.0,1.477273,10.4522,1986
1514.0,1.503016,10.4472,1986
1515.0,1.527856,10.4422,1986
1516.0,1.551427,10.4372,1987
1517.0,1.581346,10.4322,1987
1518.0,1.608068,10.4272,1987
1519.0,1.638876,10.4223,1987
1520.0,1.661074,10.4172,1987
1521.0,1.689035,10.4123,1987
1522.0,1.718847,10.4073,1987
1523.0,1.746234,10.4023,1987
1524.0,1.772236,10.3973,1987
1525.0,1.805347,10.3923,1987
1526.0,1.833473,10.3871,1987
1527.0,1.864909,10.3820,1987
1528.0,1.892676,10.3774,1987
1529.0,1.923778,10.3721,1987
1530.0,1.954112,10.3671,1987
1531.0,1.984295,10.3621,1987
