Point No.,Normal Force [N],Gap [mm],Time [s]
1,-0.011941,14.8781,694.0560
2,-0.010559,14.8825,694.0660
3,-0.010061,14.8881,694.0760
4,-0.009876,14.8925,694.0861
5,-0.011536,14.8981,694.0960
6,-0.008917,14.9031,694.1060
7,-0.010973,14.9081,694.1160
8,-0.011424,14.9125,694.1260
9,-0.012319,14.9181,694.1350
10,-0.010323,14.9225,694.1450
11,-0.009584,14.9281,694.1550
12,-0.010554,14.9325,694.1650
13,-0.011314,14.9381,694.1750
14,-0.010009,14.9431,694.1851
15,-0.010599,14.9481,694.1950
29,-0.013311,15.0181,694.3361
30,-0.011985,15.0225,694.3450
31,-0.011199,15.0275,694.3550
32,-0.010800,15.0325,694.3651
33,-0.011585,15.0381,694.3751
34,-0.010790,15.0425,694.3850
35,-0.010984,15.0475,694.3950
36,-0.010748,15.0525,694.4050
37,-0.012715,15.0581,694.4150
38,-0.010683,15.0625,694.4250
39,-0.010664,15.0675,694.4351
40,-0.010606,15.0725,694.4450
41,-0.012378,15.0781,694.4550
42,-0.010369,15.0825,694.4650
43,-0.010954,15.0881,694.4750
44,-0.011293,15.0925,694.4850
45,-0.011992,15.0981,694.4951
46,-0.009696,15.1025,694.5050
47,-0.011875,15.1075,694.5150
48,-0.011693,15.1125,694.5250
49,-0.012022,15.1181,694.5350
50,-0.010622,15.1231,694.5450
51,-0.012558,15.1281,694.5551
52,-0.011033,15.1325,694.5651
53,-0.012616,15.1381,694.5750
54,-0.011337,15.1425,694.5850
55,-0.010797,15.1475,694.5950
56,-0.010980,15.1525,694.6050
57,-0.013002,15.1581,694.6151
65,-0.012062,15.1981,694.6950
66,-0.011253,15.2025,694.7050
67,-0.012018,15.2075,694.7150
68,-0.010376,15.2125,694.7250
69,-0.012074,15.2181,694.7350
70,-0.011167,15.2231,694.7451
71,-0.010264,15.2281,694.7550
72,-0.010606,15.2325,694.7650
73,-0.010886,15.2381,694.7750
74,-0.009165,15.2425,694.7850
75,-0.009785,15.2475,694.7950
76,-0.010575,15.2525,694.8051
77,-0.013049,15.2581,694.8151
78,-0.011349,15.2631,694.8250
79,-0.010400,15.2681,694.8350
80,-0.009853,15.2725,694.8450
81,-0.012387,15.2781,694.8550
82,-0.011178,15.2825,694.8651
83,-0.011494,15.2875,694.8751
84,-0.011391,15.2925,694.8850
85,-0.012855,15.2981,694.8950
86,-0.012207,15.3025,694.9050
87,-0.013112,15.3081,694.9150
88,-0.012764,15.3125,694.9250
89,-0.013266,15.3181,694.9351
90,-0.012247,15.3225,694.9450
91,-0.012682,15.3275,694.9550
92,-0.011242,15.3325,694.9650
93,-0.013774,15.3381,694.9750
94,-0.013121,15.3425,694.9850
101,-0.013533,15.3781,695.0551
102,-0.012132,15.3825,695.0651
103,-0.011363,15.3875,695.0750
104,-0.010578,15.3925,695.0850
105,-0.010304,15.3981,695.0950
106,-0.010339,15.4025,695.1050
107,-0.010776,15.4075,695.1151
108,-0.009967,15.4125,695.1251
109,-0.011711,15.4181,695.1350
110,-0.010524,15.4231,695.1450
111,-0.009780,15.4275,695.1550
112,-0.009518,15.4325,695.1650
113,-0.012439,15.4381,695.1750
114,-0.010217,15.4425,695.1851
115,-0.010030,15.4475,695.1950
116,-0.009839,15.4525,695.2050
117,-0.011073,15.4581,695.2150
118,-0.010608,15.4631,695.2250
119,-0.011892,15.4681,695.2350
120,-0.011611,15.4725,695.2451
121,-0.011627,15.4781,695.2550
122,-0.011199,15.4825,695.2650
123,-0.011047,15.4875,695.2750
124,-0.011017,15.4925,695.2850
125,-0.011980,15.4981,695.2950
126,-0.009467,15.5025,695.3051
127,-0.009701,15.5081,695.3151
128,-0.010030,15.5125,695.3250
129,-0.011756,15.5181,695.3350
137,-0.011620,15.5581,695.4150
138,-0.010192,15.5625,695.4250
139,-0.008850,15.5675,695.4351
140,-0.008284,15.5725,695.4450
141,-0.008485,15.5775,695.4550
142,-0.008490,15.5825,695.4650
143,-0.010341,15.5875,695.4750
144,-0.009376,15.5925,695.4850
145,-0.009479,15.5981,695.4951
146,-0.010246,15.6031,695.5050
147,-0.011557,15.6075,695.5150
148,-0.010353,15.6125,695.5250
149,-0.010091,15.6175,695.5350
150,-0.009228,15.6225,695.5450
151,-0.009921,15.6275,695.5551
152,-0.009787,15.6325,695.5651
153,-0.011019,15.6375,695.5750
154,-0.009762,15.6425,695.5850
155,-0.009731,15.6481,695.5950
156,-0.009724,15.6525,695.6050
157,-0.011452,15.6581,695.6151
158,-0.010554,15.6625,695.6251
159,-0.010412,15.6675,695.6350
160,-0.010440,15.6725,695.6450
161,-0.010042,15.6775,695.6550
162,-0.008630,15.6825,695.6650
163,-0.009747,15.6875,695.6750
164,-0.008749,15.6925,695.6851
165,-0.009949,15.6981,695.6950
166,-0.011513,15.7025,695.7050
173,-0.011314,15.7381,695.7750
174,-0.009525,15.7425,695.7850
175,-0.010552,15.7475,695.7950
176,-0.010295,15.7525,695.8051
177,-0.010423,15.7575,695.8151
178,-0.010678,15.7625,695.8250
179,-0.010776,15.7675,695.8350
180,-0.008850,15.7719,695.8450
181,-0.010793,15.7775,695.8550
182,-0.010140,15.7825,695.8651
183,-0.009888,15.7875,695.8751
184,-0.009867,15.7925,695.8850
185,-0.011019,15.7975,695.8950
186,-0.009203,15.8025,695.9050
187,-0.008906,15.8075,695.9150
188,-0.009670,15.8119,695.9250
189,-0.010615,15.8175,695.9351
190,-0.010030,15.8225,695.9450
191,-0.010952,15.8275,695.9550
192,-0.011092,15.8325,695.9650
193,-0.011847,15.8375,695.9750
194,-0.009778,15.8425,695.9850
195,-0.009175,15.8475,695.9951
196,-0.008885,15.8519,696.0050
197,-0.010192,15.8575,696.0150
198,-0.009460,15.8619,696.0250
199,-0.009437,15.8669,696.0350
200,-0.010194,15.8719,696.0450
201,-0.011071,15.8775,696.0551
209,-0.010126,15.9169,696.1350
210,-0.009724,15.9225,696.1450
211,-0.009313,15.9275,696.1550
212,-0.008740,15.9319,696.1650
213,-0.009988,15.9369,696.1750
214,-0.009762,15.9419,696.1851
215,-0.009200,15.9469,696.1950
216,-0.010147,15.9519,696.2050
217,-0.010246,15.9569,696.2150
218,-0.008031,15.9619,696.2250
219,-0.009233,15.9675,696.2350
220,-0.009411,15.9719,696.2451
221,-0.010154,15.9775,696.2550
222,-0.009514,15.9819,696.2650
223,-0.010229,15.9869,696.2750
224,-0.010678,15.9919,696.2850
225,-0.010671,15.9969,696.2950
226,-0.010194,16.0019,696.3051
227,-0.010026,16.0069,696.3151
228,-0.011337,16.0119,696.3250
229,-0.010973,16.0169,696.3350
230,-0.008462,16.0225,696.3450
231,-0.008857,16.0275,696.3550
232,-0.010692,16.0319,696.3651
233,-0.010879,16.0369,696.3751
234,-0.009712,16.0419,696.3850
235,-0.008885,16.0469,696.3950
236,-0.009638,16.0519,696.4050
237,-0.008852,16.0569,696.4150
245,-0.010571,16.0969,696.4951
246,-0.008915,16.1019,696.5050
247,-0.007540,16.1069,696.5150
248,-0.008176,16.1119,696.5250
249,-0.010087,16.1175,696.5350
250,-0.009834,16.1219,696.5450
251,-0.010269,16.1269,696.5551
252,-0.011641,16.1319,696.5651
253,-0.011361,16.1369,696.5750
254,-0.009605,16.1419,696.5850
255,-0.009762,16.1469,696.5950
256,-0.009254,16.1519,696.6050
257,-0.009766,16.1569,696.6151
258,-0.008721,16.1625,696.6251
259,-0.007031,16.1669,696.6350
260,-0.006584,16.1719,696.6450
261,-0.008417,16.1769,696.6550
262,-0.008497,16.1819,696.6650
263,-0.008457,16.1869,696.6750
264,-0.008990,16.1919,696.6851
265,-0.009827,16.1969,696.6950
266,-0.008819,16.2019,696.7050
267,-0.008557,16.2075,696.7150
268,-0.009843,16.2119,696.7250
269,-0.009925,16.2175,696.7350
270,-0.009338,16.2219,696.7451
271,-0.008497,16.2269,696.7550
272,-0.009292,16.2319,696.7650
273,-0.009748,16.2369,696.7750
282,-0.006972,16.2819,696.8651
283,-0.006820,16.2869,696.8751
284,-0.008436,16.2919,696.8850
285,-0.009502,16.2969,696.8950
286,-0.008289,16.3025,696.9050
287,-0.008155,16.3075,696.9150
288,-0.008602,16.3119,696.9250
289,-0.008889,16.3169,696.9351
290,-0.010108,16.3219,696.9450
291,-0.008997,16.3269,696.9550
292,-0.008476,16.3319,696.9650
293,-0.009390,16.3369,696.9750
294,-0.008775,16.3419,696.9850
295,-0.007176,16.3475,696.9951
296,-0.007655,16.3519,697.0050
297,-0.008709,16.3569,697.0150
298,-0.007877,16.3619,697.0250
299,-0.007851,16.3669,697.0350
300,-0.008939,16.3719,697.0450
301,-0.009549,16.3769,697.0551
302,-0.008971,16.3819,697.0651
303,-0.008022,16.3869,697.0750
304,-0.007627,16.3894,697.0850
305,-0.006783,16.3975,697.0950
306,-0.007215,16.4025,697.1050
307,-0.007592,16.4069,697.1151
308,-0.007550,16.4119,697.1251
309,-0.009722,16.4169,697.1350
310,-0.009507,16.4219,697.1450
311,-0.008321,16.4269,697.1550
318,-0.008284,16.4619,697.2250
319,-0.007928,16.4669,697.2350
320,-0.008373,16.4719,697.2451
321,-0.008686,16.4769,697.2550
322,-0.009322,16.4794,697.2650
323,-0.009027,16.4847,697.2750
324,-0.008826,16.4897,697.2850
325,-0.007971,16.4969,697.2950
326,-0.006797,16.5019,697.3051
327,-0.007253,16.5069,697.3151
328,-0.008064,16.5119,697.3250
329,-0.009294,16.5169,697.3350
330,-0.008885,16.5219,697.3450
331,-0.007917,16.5269,697.3550
332,-0.008403,16.5294,697.3651
333,-0.010080,16.5344,697.3751
334,-0.010409,16.5394,697.3850
335,-0.008611,16.5469,697.3950
336,-0.008709,16.5519,697.4050
337,-0.008768,16.5569,697.4150
338,-0.007978,16.5619,697.4250
339,-0.007580,16.5669,697.4351
340,-0.008646,16.5719,697.4450
341,-0.009724,16.5744,697.4550
342,-0.009011,16.5794,697.4650
343,-0.007924,16.5844,697.4750
344,-0.008480,16.5894,697.4850
345,-0.008604,16.5969,697.4951
346,-0.009161,16.6019,697.5050
354,-0.009280,16.6394,697.5850
355,-0.007538,16.6469,697.5950
356,-0.006540,16.6512,697.6050
357,-0.007005,16.6541,697.6151
358,-0.008506,16.6594,697.6251
359,-0.008681,16.6644,697.6350
360,-0.007847,16.6691,697.6450
361,-0.007966,16.6737,697.6550
362,-0.008766,16.6791,697.6650
363,-0.007447,16.6844,697.6750
364,-0.007126,16.6894,697.6851
365,-0.007706,16.6944,697.6950
366,-0.008370,16.6994,697.7050
367,-0.006965,16.7041,697.7150
368,-0.008380,16.7087,697.7250
369,-0.009165,16.7137,697.7350
370,-0.008635,16.7187,697.7451
371,-0.007879,16.7237,697.7550
372,-0.009126,16.7287,697.7650
373,-0.009811,16.7341,697.7750
374,-0.010313,16.7394,697.7850
375,-0.008667,16.7441,697.7950
376,-0.009011,16.7487,697.8051
377,-0.010592,16.7537,697.8151
378,-0.010077,16.7587,697.8250
379,-0.007697,16.7637,697.8350
380,-0.009018,16.7687,697.8450
381,-0.010954,16.7737,697.8550
382,-0.009581,16.7791,697.8651
390,-0.010182,16.8187,697.9450
391,-0.008541,16.8241,697.9550
392,-0.009205,16.8291,697.9650
393,-0.009911,16.8337,697.9750
394,-0.009105,16.8387,697.9850
395,-0.007536,16.8437,697.9951
396,-0.007309,16.8488,698.0050
397,-0.007713,16.8538,698.0150
398,-0.008434,16.8587,698.0250
399,-0.007178,16.8637,698.0350
400,-0.007819,16.8687,698.0450
401,-0.007961,16.8737,698.0551
402,-0.009242,16.8787,698.0651
403,-0.007498,16.8837,698.0750
404,-0.008628,16.8887,698.0850
405,-0.009280,16.8937,698.0950
406,-0.009032,16.8987,698.1050
407,-0.007503,16.9037,698.1151
408,-0.007992,16.9087,698.1251
409,-0.008798,16.9137,698.1350
410,-0.009892,16.9191,698.1450
411,-0.008506,16.9241,698.1550
412,-0.008567,16.9287,698.1650
413,-0.007807,16.9337,698.1750
414,-0.009074,16.9387,698.1851
415,-0.006521,16.9437,698.1950
416,-0.006869,16.9484,698.2061
417,-0.007487,16.9534,698.2160
418,-0.008969,16.9587,698.2260
426,-0.008658,16.9984,698.3060
