Point No.,Normal Force [N],Gap [mm],Time [s]
1,2.921614,22.3411,1982
2,2.915866,22.3411,1982
3,2.916540,22.3411,1982
4,2.909348,22.3411,1982
5,2.924612,22.3411,1982
6,2.920468,22.3417,1983
7,2.903152,22.3417,1983
8,2.891325,22.3423,1983
9,2.907749,22.3423,1983
10,2.912467,22.3423,1983
11,2.904012,22.3436,1983
12,2.880398,22.3436,1983
13,2.882960,22.3448,1983
14,2.907201,22.3448,1983
15,2.902969,22.3455,1983
16,2.907408,22.3455,1983
17,2.853519,22.3467,1983
18,2.849044,22.3467,1983
19,2.883844,22.3473,1983
20,2.884447,22.3486,1983
21,2.864442,22.3486,1983
22,2.856601,22.3492,1983
23,2.841576,22.3492,1983
24,2.843207,22.3498,1983
25,2.875403,22.3498,1983
26,2.873430,22.3511,1983
27,2.810222,22.3510,1983
28,2.808530,22.3523,1983
29,2.859547,22.3523,1983
30,2.831381,22.3523,1983
31,2.820851,22.3535,1983
32,2.811826,22.3535,1983
33,2.809918,22.3542,1983
34,2.842455,22.3542,1983
35,2.833921,22.3554,1983
36,2.789394,22.3554,1983
37,2.778667,22.3560,1983
38,2.823236,22.3560,1983
39,2.831911,22.3573,1983
40,2.794838,22.3573,1983
41,2.782535,22.3585,1983
42,2.783549,22.3585,1983
43,2.782998,22.3591,1983
44,2.808819,22.3592,1983
45,2.802614,22.3598,1983
46,2.755792,22.3597,1983
47,2.743503,22.3610,1983
48,2.793304,22.3610,1983
49,2.799790,22.3623,1983
50,2.749989,22.3622,1983
51,2.747342,22.3635,1983
52,2.745934,22.3635,1983
53,2.747361,22.3641,1983
54,2.774066,22.3641,1983
55,2.768763,22.3654,1983
56,2.717311,22.3654,1983
57,2.709787,22.3666,1983
58,2.771377,22.3666,1983
59,2.773234,22.3673,1983
60,2.713641,22.3672,1983
61,2.711920,22.3685,1983
62,2.722054,22.3685,1983
63,2.721955,22.3691,1983
64,2.741225,22.3691,1983
65,2.733051,22.3697,1983
66,2.691204,22.3697,1983
67,2.681899,22.3710,1983
68,2.739102,22.3710,1983
69,2.744742,22.3722,1983
70,2.678621,22.3722,1983
71,2.677849,22.3735,1983
72,2.697068,22.3735,1983
73,2.696025,22.3741,1983
74,2.707851,22.3741,1983
75,2.697508,22.3753,1983
76,2.662086,22.3753,1983
77,2.651850,22.3759,1983
78,2.709460,22.3760,1983
79,2.711705,22.3772,1983
80,2.651780,22.3772,1983
81,2.648113,22.3784,1983
82,2.672135,22.3785,1983
83,2.671303,22.3791,1983
84,2.673678,22.3791,1983
85,2.662680,22.3797,1983
86,2.634071,22.3797,1983
87,2.631892,22.3809,1983
88,2.675029,22.3810,1983
89,2.678906,22.3822,1983
90,2.612771,22.3822,1983
91,2.621599,22.3834,1983
92,2.644041,22.3834,1983
93,2.645509,22.3841,1983
94,2.639706,22.3841,1983
95,2.631297,22.3853,1983
96,2.602170,22.3853,1983
97,2.603713,22.3859,1983
98,2.643330,22.3859,1983
99,2.644002,22.3872,1983
100,2.578640,22.3871,1983
101,2.586004,22.3884,1983
102,2.618018,22.3884,1983
103,2.618480,22.3890,1983
104,2.606458,22.3890,1983
105,2.596596,22.3897,1983
106,2.582450,22.3896,1983
107,2.578213,22.3909,1983
108,2.613192,22.3909,1983
109,2.615081,22.3922,1983
110,2.550199,22.3921,1983
111,2.554520,22.3934,1983
112,2.589544,22.3934,1983
113,2.591508,22.3940,1983
114,2.571714,22.3940,1983
115,2.563868,22.3953,1983
116,2.554993,22.3953,1983
117,2.553458,22.3959,1983
118,2.583998,22.3959,1983
119,2.576451,22.3971,1983
120,2.522464,22.3971,1983
121,2.526827,22.3984,1983
122,2.565602,22.3984,1983
123,2.567323,22.3990,1983
124,2.541997,22.3990,1983
125,2.535516,22.3996,1983
126,2.532542,22.3996,1983
127,2.532276,22.4009,1983
128,2.546963,22.4009,1983
129,2.548576,22.4021,1983
130,2.492799,22.4021,1983
131,2.504339,22.4034,1983
132,2.537134,22.4034,1983
133,2.536741,22.4040,1983
134,2.502680,22.4040,1983
135,2.497325,22.4052,1983
136,2.506210,22.4052,1983
137,2.506622,22.4059,1983
138,2.520650,22.4059,1983
139,2.512939,22.4071,1983
140,2.466167,22.4071,1983
141,2.480552,22.4083,1983
142,2.511657,22.4084,1983
143,2.514108,22.4090,1983
144,2.474763,22.4090,1983
145,2.471143,22.4096,1983
146,2.480898,22.4096,1983
147,2.484386,22.4108,1983
148,2.482904,22.4108,1983
149,2.480866,22.4121,1983
150,2.441927,22.4121,1983
151,2.451999,22.4133,1983
152,2.483438,22.4133,1983
153,2.482264,22.4140,1983
154,2.442595,22.4139,1983
155,2.439476,22.4152,1983
156,2.456114,22.4152,1983
157,2.462067,22.4158,1983
158,2.454220,22.4158,1983
159,2.445822,22.4171,1983
160,2.421772,22.4171,1983
161,2.428562,22.4177,1983
162,2.455712,22.4177,1983
163,2.457372,22.4190,1983
164,2.412097,22.4189,1983
165,2.410475,22.4195,1983
166,2.432635,22.4196,1983
167,2.442539,22.4208,1983
168,2.414599,22.4208,1983
169,2.414650,22.4220,1983
170,2.392074,22.4220,1983
171,2.404278,22.4233,1983
172,2.426650,22.4233,1983
173,2.429025,22.4239,1983
174,2.383386,22.4239,1983
175,2.378228,22.4252,1983
176,2.410167,22.4252,1983
177,2.415623,22.4258,1983
178,2.389521,22.4258,1983
179,2.376619,22.4270,1983
180,2.369843,22.4270,1983
181,2.377297,22.4283,1983
182,2.398171,22.4283,1983
183,2.394323,22.4289,1983
184,2.354959,22.4289,1983
185,2.353874,22.4295,1983
186,2.384990,22.4295,1983
187,2.399111,22.4302,1983
188,2.355025,22.4301,1983
189,2.349348,22.4320,1983
190,2.350690,22.4320,1983
191,2.357400,22.4333,1983
192,2.367726,22.4333,1983
193,2.363938,22.4339,1983
194,2.326547,22.4339,1983
195,2.325158,22.4351,1983
196,2.365373,22.4351,1983
197,2.374258,22.4358,1983
198,2.329142,22.4358,1983
199,2.319397,22.4370,1983
200,2.330844,22.4370,1983
201,2.339827,22.4376,1983
202,2.343302,22.4376,1983
203,2.342104,22.4389,1983
204,2.304152,22.4389,1983
205,2.301286,22.4395,1983
206,2.336507,22.4395,1984
207,2.350485,22.4401,1984
208,2.297821,22.4401,1984
209,2.295520,22.4420,1984
210,2.315217,22.4420,1984
211,2.317442,22.4432,1984
212,2.313799,22.4432,1984
213,2.311541,22.4439,1984
214,2.281675,22.4438,1984
215,2.281020,22.4451,1984
216,2.311401,22.4451,1984
217,2.319345,22.4457,1984
218,2.272822,22.4457,1984
219,2.268861,22.4470,1984
220,2.291854,22.4470,1984
221,2.296190,22.4476,1984
222,2.289661,22.4476,1984
223,2.289133,22.4489,1984
224,2.263465,22.4488,1984
225,2.262876,22.4495,1984
226,2.289961,22.4495,1984
227,2.301721,22.4501,1984
228,2.249614,22.4501,1984
229,2.252939,22.4520,1984
230,2.278312,22.4520,1984
231,2.278302,22.4532,1984
232,2.263834,22.4532,1984
233,2.260833,22.4538,1984
234,2.246874,22.4538,1984
235,2.246706,22.4545,1984
236,2.269783,22.4545,1984
237,2.276605,22.4551,1984
238,2.226767,22.4551,1984
239,2.226299,22.4569,1984
240,2.260337,22.4570,1984
241,2.259097,22.4576,1984
242,2.239192,22.4576,1984
243,2.237228,22.4588,1984
244,2.225860,22.4588,1984
245,2.230199,22.4594,1984
246,2.254178,22.4595,1984
247,2.255114,22.4601,1984
248,2.206888,22.4601,1984
249,2.206925,22.4619,1984
250,2.243446,22.4619,1984
251,2.238382,22.4632,1984
252,2.221805,22.4632,1984
253,2.214646,22.4638,1984
254,2.206893,22.4638,1984
255,2.210807,22.4651,1984
256,2.233299,22.4651,1984
257,2.231775,22.4657,1984
258,2.183853,22.4657,1984
259,2.182722,22.4669,1984
260,2.226776,22.4669,1984
261,2.227207,22.4676,1984
262,2.195019,22.4675,1984
263,2.192682,22.4688,1984
264,2.189731,22.4688,1984
265,2.193028,22.4694,1984
266,2.212443,22.4694,1984
267,2.209394,22.4701,1984
268,2.152139,22.4700,1984
269,2.154650,22.4719,1984
270,2.209193,22.4719,1984
271,2.205102,22.4732,1984
272,2.166888,22.4732,1984
273,2.163676,22.4738,1984
274,2.170559,22.4738,1984
275,2.176170,22.4744,1984
276,2.189272,22.4744,1984
277,2.183774,22.4757,1984
278,2.133341,22.4756,1984
279,2.139631,22.4769,1984
280,2.195114,22.4769,1984
281,2.187052,22.4775,1984
282,2.138887,22.4775,1984
283,2.137433,22.4788,1984
284,2.152579,22.4788,1984
285,2.156456,22.4794,1984
286,2.160796,22.4794,1984
287,2.158420,22.4800,1984
288,2.110961,22.4800,1984
289,2.115263,22.4819,1984
290,2.170606,22.4819,1984
291,2.158181,22.4831,1984
292,2.114005,22.4831,1984
293,2.104138,22.4837,1984
294,2.131499,22.4838,1984
295,2.136053,22.4850,1984
296,2.135333,22.4850,1984
297,2.129044,22.4856,1984
298,2.085125,22.4856,1984
299,2.096437,22.4869,1984
300,2.148272,22.4869,1984
301,2.134641,22.4875,1984
302,2.085317,22.4875,1984
303,2.087187,22.4887,1984
304,2.111148,22.4887,1984
305,2.114599,22.4894,1984
306,2.108997,22.4894,1984
307,2.106589,22.4900,1984
308,2.064227,22.4900,1984
309,2.075796,22.4919,1984
310,2.128581,22.4919,1984
311,2.109535,22.4925,1984
312,2.064190,22.4925,1984
313,2.054351,22.4937,1984
314,2.088833,22.4937,1984
315,2.093818,22.4944,1984
316,2.075446,22.4944,1984
317,2.079663,22.4956,1984
318,2.051649,22.4956,1984
319,2.061052,22.4968,1984
320,2.101277,22.4969,1984
321,2.085546,22.4975,1984
322,2.036190,22.4975,1984
323,2.038990,22.4987,1984
324,2.073598,22.4987,1984
325,2.076909,22.4993,1984
326,2.051101,22.4993,1984
327,2.042694,22.5006,1984
328,2.037339,22.5006,1984
329,2.042993,22.5018,1984
330,2.071167,22.5018,1984
331,2.054408,22.5031,1984
332,2.017120,22.5031,1984
333,2.011578,22.5037,1984
334,2.049451,22.5037,1984
335,2.054417,22.5043,1984
336,2.024948,22.5043,1984
337,2.015534,22.5056,1984
338,2.014973,22.5056,1984
339,2.024367,22.5068,1984
340,2.045789,22.5068,1984
341,2.031854,22.5075,1984
342,1.996105,22.5074,1984
343,1.997367,22.5087,1984
344,2.037424,22.5087,1984
345,2.036793,22.5093,1984
346,2.000833,22.5093,1984
347,1.997433,22.5106,1984
348,1.997077,22.5106,1984
349,2.009086,22.5118,1984
350,2.021552,22.5118,1984
351,2.000954,22.5124,1984
352,1.977844,22.5124,1984
353,1.980477,22.5137,1984
354,2.014968,22.5137,1984
355,2.013575,22.5143,1984
356,1.974660,22.5143,1984
357,1.967847,22.5155,1984
358,1.979832,22.5155,1984
359,1.987982,22.5168,1984
360,1.992766,22.5168,1984
361,1.980126,22.5174,1984
362,1.956091,22.5174,1984
363,1.959144,22.5187,1984
364,1.993636,22.5187,1984
365,1.988301,22.5193,1984
366,1.947996,22.5193,1984
367,1.941202,22.5205,1984
368,1.968314,22.5205,1984
369,1.974071,22.5218,1984
370,1.966392,22.5218,1984
371,1.944901,22.5230,1984
372,1.938691,22.5230,1984
373,1.932542,22.5236,1984
374,1.974024,22.5237,1984
375,1.968815,22.5243,1984
376,1.926196,22.5243,1984
377,1.916638,22.5255,1984
378,1.945027,22.5255,1984
379,1.956792,22.5268,1984
380,1.939355,22.5268,1984
381,1.921870,22.5274,1984
382,1.916390,22.5274,1984
383,1.921875,22.5286,1984
384,1.950353,22.5287,1984
385,1.948085,22.5293,1984
386,1.901113,22.5292,1984
387,1.892238,22.5305,1984
388,1.932303,22.5305,1984
389,1.938186,22.5318,1984
390,1.911770,22.5318,1984
391,1.896736,22.5324,1984
392,1.900557,22.5324,1984
393,1.901875,22.5336,1984
394,1.925775,22.5336,1984
395,1.923021,22.5343,1984
396,1.879542,22.5342,1984
397,1.870606,22.5355,1984
398,1.914220,22.5355,1984
399,1.918793,22.5368,1984
400,1.883470,22.5367,1984
401,1.870035,22.5374,1984
402,1.877943,22.5374,1984
403,1.885167,22.5386,1984
404,1.908529,22.5386,1984
405,1.900295,22.5392,1984
406,1.856273,22.5392,1985
407,1.852270,22.5405,1985
408,1.894679,22.5405,1985
409,1.896806,22.5417,1985
410,1.857956,22.5417,1985
411,1.838340,22.5430,1985
412,1.868529,22.5430,1985
413,1.864302,22.5436,1985
414,1.881800,22.5436,1985
415,1.876269,22.5442,1985
416,1.868932,22.5442,1985
417,1.829511,22.5455,1985
418,1.825752,22.5454,1985
419,1.879822,22.5467,1985
420,1.881753,22.5467,1985
421,1.817653,22.5473,1985
422,1.818911,22.5473,1985
423,1.848665,22.5486,1985
424,1.856773,22.5486,1985
425,1.853664,22.5492,1985
426,1.845345,22.5492,1985
427,1.813944,22.5504,1985
428,1.808572,22.5504,1985
429,1.857741,22.5517,1985
430,1.862390,22.5517,1985
431,1.798046,22.5523,1985
432,1.800552,22.5523,1985
433,1.834866,22.5536,1985
434,1.834412,22.5536,1985
435,1.823362,22.5542,1985
436,1.817438,22.5542,1985
437,1.799771,22.5554,1985
438,1.793430,22.5554,1985
439,1.836933,22.5561,1985
440,1.837657,22.5561,1985
441,1.777129,22.5573,1985
442,1.778139,22.5573,1985
443,1.815431,22.5586,1985
444,1.819312,22.5586,1985
445,1.802497,22.5592,1985
446,1.793210,22.5592,1985
447,1.779313,22.5604,1985
448,1.785083,22.5604,1985
449,1.811700,22.5617,1985
450,1.812616,22.5617,1985
451,1.753991,22.5629,1985
452,1.764802,22.5629,1985
453,1.796493,22.5636,1985
454,1.802128,22.5636,1985
455,1.778097,22.5642,1985
456,1.771522,22.5642,1985
457,1.760674,22.5654,1985
458,1.769488,22.5654,1985
459,1.795497,22.5667,1985
460,1.791447,22.5667,1985
461,1.733178,22.5673,1985
462,1.746874,22.5673,1985
463,1.784269,22.5686,1985
464,1.786374,22.5686,1985
465,1.757751,22.5692,1985
466,1.749619,22.5692,1985
467,1.747403,22.5704,1985
468,1.752144,22.5704,1985
469,1.771845,22.5710,1985
470,1.770755,22.5710,1985
471,1.717849,22.5723,1985
472,1.731630,22.5723,1985
473,1.768520,22.5735,1985
474,1.765312,22.5735,1985
475,1.732050,22.5741,1985
476,1.724288,22.5741,1985
477,1.734164,22.5754,1985
478,1.734075,22.5754,1985
479,1.747856,22.5760,1985
480,1.741875,22.5760,1985
481,1.702801,22.5773,1985
482,1.707510,22.5773,1985
483,1.748511,22.5785,1985
484,1.749418,22.5785,1985
485,1.708647,22.5791,1985
486,1.706683,22.5791,1985
487,1.717307,22.5804,1985
488,1.724457,22.5804,1985
489,1.720159,22.5810,1985
490,1.719458,22.5810,1985
491,1.682867,22.5829,1985
492,1.696072,22.5829,1985
493,1.727211,22.5835,1985
494,1.729979,22.5835,1985
495,1.684962,22.5841,1985
496,1.685004,22.5841,1985
497,1.701749,22.5854,1985
498,1.709498,22.5854,1985
499,1.694543,22.5860,1985
500,1.697620,22.5860,1985
501,1.667758,22.5872,1985
502,1.679579,22.5872,1985
503,1.707730,22.5885,1985
504,1.709184,22.5885,1985
505,1.668188,22.5891,1985
506,1.663114,22.5891,1985
507,1.692158,22.5904,1985
508,1.700566,22.5904,1985
509,1.674043,22.5910,1985
510,1.671592,22.5910,1985
511,1.657952,22.5922,1985
512,1.665467,22.5922,1985
513,1.690292,22.5935,1985
514,1.688254,22.5935,1985
515,1.646032,22.5941,1985
516,1.641651,22.5941,1985
517,1.677980,22.5954,1985
518,1.685892,22.5954,1985
519,1.653912,22.5960,1985
520,1.648520,22.5960,1985
521,1.642960,22.5972,1985
522,1.650994,22.5972,1985
523,1.666603,22.5979,1985
524,1.668899,22.5979,1985
525,1.629497,22.5991,1985
526,1.628731,22.5991,1985
527,1.661052,22.5997,1985
528,1.671340,22.5997,1985
529,1.626519,22.6010,1985
530,1.625602,22.6010,1985
531,1.627664,22.6028,1985
532,1.639532,22.6028,1985
533,1.655576,22.6035,1985
534,1.648478,22.6035,1985
535,1.608796,22.6041,1985
536,1.609418,22.6041,1985
537,1.647351,22.6053,1985
538,1.654160,22.6054,1985
539,1.605247,22.6059,1985
540,1.601730,22.6059,1985
541,1.613360,22.6072,1985
542,1.627636,22.6072,1985
543,1.631055,22.6085,1985
544,1.628946,22.6085,1985
545,1.585037,22.6091,1985
546,1.589381,22.6091,1985
547,1.634520,22.6097,1985
548,1.640781,22.6097,1985
549,1.582483,22.6109,1985
550,1.582062,22.6109,1985
551,1.607365,22.6122,1985
552,1.609600,22.6122,1985
553,1.610559,22.6135,1985
554,1.604330,22.6134,1985
555,1.575076,22.6141,1985
556,1.575684,22.6141,1985
557,1.619018,22.6153,1985
558,1.626322,22.6153,1985
559,1.564106,22.6159,1985
560,1.564078,22.6159,1985
561,1.595212,22.6172,1985
562,1.602955,22.6172,1985
563,1.588123,22.6178,1985
564,1.585733,22.6178,1985
565,1.565719,22.6190,1985
566,1.566177,22.6190,1985
567,1.599846,22.6197,1985
568,1.607253,22.6197,1985
569,1.541781,22.6209,1985
570,1.540608,22.6209,1985
571,1.582596,22.6228,1985
572,1.587786,22.6228,1985
573,1.570549,22.6234,1985
574,1.561071,22.6234,1985
575,1.540056,22.6240,1985
576,1.545906,22.6240,1985
577,1.584714,22.6253,1985
578,1.589890,22.6253,1985
579,1.519963,22.6259,1985
580,1.525504,22.6259,1985
581,1.573593,22.6272,1985
582,1.576741,22.6272,1985
583,1.548057,22.6278,1985
584,1.548483,22.6278,1985
585,1.534024,22.6290,1985
586,1.536750,22.6290,1985
587,1.567781,22.6297,1985
588,1.574230,22.6297,1985
589,1.500131,22.6309,1985
590,1.509105,22.6309,1985
591,1.560645,22.6322,1985
592,1.561202,22.6322,1985
593,1.523685,22.6328,1985
594,1.521408,22.6328,1985
595,1.517882,22.6340,1985
596,1.521529,22.6340,1985
597,1.546626,22.6347,1985
598,1.555179,22.6347,1985
599,1.485883,22.6359,1985
600,1.492397,22.6359,1985
601,1.549077,22.6372,1985
602,1.550625,22.6372,1985
603,1.503647,22.6378,1985
604,1.505850,22.6378,1985
605,1.511527,22.6390,1985
606,1.516025,22.6390,1986
607,1.526851,22.6397,1986
608,1.531793,22.6397,1986
609,1.473117,22.6409,1986
610,1.481019,22.6409,1986
611,1.536035,22.6422,1986
612,1.529357,22.6422,1986
613,1.489694,22.6434,1986
614,1.482352,22.6434,1986
615,1.492705,22.6440,1986
616,1.497629,22.6440,1986
617,1.510816,22.6453,1986
618,1.509535,22.6453,1986
619,1.453603,22.6465,1986
620,1.465074,22.6465,1986
621,1.518761,22.6471,1986
622,1.516694,22.6471,1986
623,1.467501,22.6477,1986
624,1.469002,22.6477,1986
625,1.485911,22.6490,1986
626,1.490012,22.6490,1986
627,1.497325,22.6496,1986
628,1.495455,22.6496,1986
629,1.439682,22.6508,1986
630,1.456357,22.6509,1986
631,1.506949,22.6521,1986
632,1.498377,22.6521,1986
633,1.451456,22.6527,1986
634,1.445920,22.6527,1986
635,1.468029,22.6540,1986
636,1.474552,22.6540,1986
637,1.473093,22.6546,1986
638,1.472397,22.6546,1986
639,1.434936,22.6558,1986
640,1.441950,22.6559,1986
641,1.494426,22.6571,1986
642,1.481543,22.6571,1986
643,1.427108,22.6577,1986
644,1.430732,22.6577,1986
645,1.461052,22.6590,1986
646,1.467501,22.6590,1986
647,1.458410,22.6596,1986
648,1.452873,22.6596,1986
649,1.420757,22.6608,1986
650,1.431368,22.6608,1986
651,1.477531,22.6621,1986
652,1.461866,22.6621,1986
653,1.416666,22.6633,1986
654,1.409156,22.6633,1986
655,1.447360,22.6640,1986
656,1.453178,22.6640,1986
657,1.435562,22.6646,1986
658,1.428548,22.6646,1986
659,1.405766,22.6665,1986
660,1.422670,22.6665,1986
661,1.457344,22.6671,1986
662,1.444966,22.6671,1986
663,1.394744,22.6677,1986
664,1.395922,22.6677,1986
665,1.436399,22.6690,1986
666,1.438354,22.6690,1986
667,1.414253,22.6696,1986
668,1.410854,22.6696,1986
669,1.399719,22.6708,1986
670,1.411059,22.6708,1986
671,1.440748,22.6721,1986
672,1.425700,22.6721,1986
673,1.380341,22.6727,1986
674,1.385162,22.6727,1986
675,1.421403,22.6740,1986
676,1.427828,22.6740,1986
677,1.395726,22.6746,1986
678,1.388482,22.6746,1986
679,1.386290,22.6758,1986
680,1.401048,22.6758,1986
681,1.421066,22.6771,1986
682,1.410741,22.6771,1986
683,1.366028,22.6777,1986
684,1.373748,22.6777,1986
685,1.417255,22.6790,1986
686,1.414622,22.6790,1986
687,1.376072,22.6796,1986
688,1.367767,22.6796,1986
689,1.377484,22.6808,1986
690,1.391634,22.6808,1986
691,1.402862,22.6821,1986
692,1.380828,22.6821,1986
693,1.358485,22.6833,1986
694,1.356521,22.6833,1986
695,1.398602,22.6839,1986
696,1.399617,22.6839,1986
697,1.355604,22.6846,1986
698,1.349586,22.6845,1986
699,1.372261,22.6864,1986
700,1.386865,22.6864,1986
701,1.384597,22.6871,1986
702,1.364382,22.6871,1986
703,1.346533,22.6877,1986
704,1.346968,22.6877,1986
705,1.388347,22.6889,1986
706,1.386187,22.6889,1986
707,1.342273,22.6895,1986
708,1.333655,22.6895,1986
709,1.364929,22.6908,1986
710,1.375834,22.6908,1986
711,1.367884,22.6921,1986
712,1.344363,22.6920,1986
713,1.335908,22.6933,1986
714,1.338017,22.6933,1986
715,1.369848,22.6939,1986
716,1.367267,22.6939,1986
717,1.326720,22.6945,1986
718,1.319925,22.6945,1986
719,1.357465,22.6958,1986
720,1.368272,22.6958,1986
721,1.349469,22.6964,1986
722,1.330615,22.6964,1986
723,1.326892,22.6977,1986
724,1.328721,22.6977,1986
725,1.354491,22.6989,1986
726,1.354253,22.6989,1986
727,1.308113,22.6995,1986
728,1.305069,22.6995,1986
729,1.346467,22.7008,1986
730,1.350793,22.7008,1986
731,1.327533,22.7020,1986
732,1.306149,22.7020,1986
733,1.321305,22.7033,1986
734,1.318560,22.7033,1986
735,1.343283,22.7039,1986
736,1.341426,22.7039,1986
737,1.297643,22.7045,1986
738,1.291686,22.7045,1986
739,1.339331,22.7058,1986
740,1.343956,22.7058,1986
741,1.308483,22.7070,1986
742,1.287940,22.7070,1986
743,1.311059,22.7076,1986
744,1.312953,22.7077,1986
745,1.328497,22.7089,1986
746,1.325289,22.7089,1986
747,1.285406,22.7095,1986
748,1.282535,22.7095,1986
749,1.330634,22.7108,1986
750,1.330493,22.7108,1986
751,1.291938,22.7120,1986
752,1.273580,22.7120,1986
753,1.305251,22.7133,1986
754,1.302740,22.7133,1986
755,1.313715,22.7139,1986
756,1.306332,22.7139,1986
757,1.276119,22.7145,1986
758,1.269455,22.7145,1986
759,1.322548,22.7158,1986
760,1.322151,22.7158,1986
761,1.272574,22.7164,1986
762,1.256044,22.7164,1986
763,1.290821,22.7176,1986
764,1.294571,22.7176,1986
765,1.295235,22.7189,1986
766,1.289970,22.7189,1986
767,1.259542,22.7195,1986
768,1.260468,22.7195,1986
769,1.309815,22.7208,1986
770,1.302352,22.7208,1986
771,1.253444,22.7220,1986
772,1.239650,22.7220,1986
773,1.282839,22.7233,1986
774,1.281258,22.7233,1986
775,1.278148,22.7239,1986
776,1.272397,22.7239,1986
777,1.249165,22.7245,1986
778,1.248230,22.7245,1986
779,1.301309,22.7258,1986
780,1.290592,22.7258,1986
781,1.238546,22.7270,1986
782,1.226420,22.7270,1986
783,1.277035,22.7276,1986
784,1.274178,22.7276,1986
785,1.269708,22.7276,1986
786,1.261174,22.7289,1986
787,1.243568,22.7295,1986
788,1.241945,22.7295,1986
789,1.295165,22.7308,1986
790,1.273846,22.7308,1986
791,1.227145,22.7313,1986
792,1.216858,22.7313,1986
793,1.272434,22.7333,1986
794,1.269081,22.7332,1986
795,1.248445,22.7339,1986
796,1.242623,22.7339,1986
797,1.232747,22.7345,1986
798,1.232425,22.7345,1986
799,1.279640,22.7358,1986
800,1.264952,22.7358,1986
801,1.211129,22.7363,1986
802,1.203035,22.7363,1986
803,1.264026,22.7364,1986
804,1.258957,22.7376,1986
805,1.233224,22.7376,1986
806,1.225518,22.7389,1987
807,1.225929,22.7395,1987
808,1.222974,22.7395,1987
809,1.262258,22.7407,1987
810,1.241772,22.7407,1987
811,1.196862,22.7420,1987
812,1.189039,22.7420,1987
813,1.249965,22.7432,1987
814,1.242750,22.7432,1987
815,1.209563,22.7438,1987
816,1.208048,22.7438,1987
817,1.215628,22.7445,1987
818,1.214459,22.7445,1987
819,1.244742,22.7457,1987
820,1.229418,22.7457,1987
821,1.186346,22.7457,1987
822,1.176708,22.7469,1987
823,1.239135,22.7470,1987
824,1.233056,22.7482,1987
825,1.199102,22.7482,1987
826,1.194216,22.7488,1987
827,1.207435,22.7495,1987
828,1.211635,22.7495,1987
829,1.235707,22.7507,1987
830,1.208300,22.7507,1987
831,1.171111,22.7519,1987
832,1.171452,22.7519,1987
833,1.233023,22.7526,1987
834,1.225321,22.7526,1987
835,1.184620,22.7538,1987
836,1.178583,22.7538,1987
837,1.199958,22.7545,1987
838,1.203727,22.7545,1987
839,1.220589,22.7545,1987
840,1.196694,22.7557,1987
841,1.162675,22.7557,1987
842,1.165336,22.7563,1987
843,1.221744,22.7563,1987
844,1.207183,22.7576,1987
845,1.169998,22.7582,1987
846,1.164087,22.7582,1987
847,1.195497,22.7595,1987
848,1.197377,22.7595,1987
849,1.203208,22.7601,1987
850,1.176329,22.7601,1987
851,1.157844,22.7619,1987
852,1.156951,22.7619,1987
853,1.202974,22.7632,1987
854,1.195567,22.7632,1987
855,1.148249,22.7638,1987
856,1.150353,22.7638,1987
857,1.187000,22.7638,1987
858,1.183386,22.7645,1987
859,1.184054,22.7645,1987
860,1.160014,22.7657,1987
861,1.152846,22.7657,1987
862,1.147561,22.7669,1987
863,1.192228,22.7670,1987
864,1.182619,22.7676,1987
865,1.142591,22.7682,1987
866,1.139490,22.7682,1987
867,1.177321,22.7694,1987
868,1.177153,22.7694,1987
869,1.166879,22.7701,1987
870,1.141941,22.7700,1987
871,1.147024,22.7719,1987
872,1.148861,22.7719,1987
873,1.178069,22.7726,1987
874,1.166612,22.7726,1987
875,1.126869,22.7732,1987
876,1.125443,22.7732,1987
877,1.169993,22.7732,1987
878,1.171588,22.7744,1987
879,1.148698,22.7744,1987
880,1.125448,22.7757,1987
881,1.133897,22.7757,1987
882,1.146014,22.7763,1987
883,1.169974,22.7763,1987
884,1.150269,22.7776,1987
885,1.120393,22.7782,1987
886,1.115703,22.7782,1987
887,1.161071,22.7794,1987
888,1.162647,22.7794,1987
889,1.132859,22.7800,1987
890,1.103512,22.7800,1987
891,1.129806,22.7800,1987
892,1.138265,22.7819,1987
893,1.148796,22.7819,1987
894,1.142015,22.7832,1987
895,1.104550,22.7832,1987
896,1.102090,22.7838,1987
897,1.156708,22.7838,1987
898,1.152013,22.7844,1987
899,1.113781,22.7844,1987
900,1.093589,22.7856,1987
901,1.125892,22.7857,1987
902,1.131429,22.7869,1987
903,1.132495,22.7869,1987
904,1.121202,22.7875,1987
905,1.095647,22.7875,1987
906,1.093982,22.7881,1987
907,1.144386,22.7882,1987
908,1.141801,22.7894,1987
909,1.100599,22.7894,1987
910,1.077643,22.7900,1987
911,1.117054,22.7900,1987
912,1.125668,22.7919,1987
913,1.116418,22.7919,1987
914,1.106093,22.7925,1987
915,1.086229,22.7925,1987
916,1.085560,22.7931,1987
917,1.133729,22.7932,1987
918,1.127650,22.7944,1987
919,1.090395,22.7944,1987
920,1.065284,22.7950,1987
921,1.110236,22.7950,1987
922,1.124676,22.7963,1987
923,1.102474,22.7963,1987
924,1.089984,22.7975,1987
925,1.081815,22.7975,1987
926,1.080748,22.7981,1987
927,1.122455,22.7982,1987
928,1.120201,22.7994,1987
929,1.070783,22.7994,1987
930,1.053224,22.8000,1987
931,1.108871,22.8000,1987
932,1.118541,22.8019,1987
933,1.079705,22.8019,1987
934,1.077101,22.8031,1987
935,1.066219,22.8031,1987
936,1.073304,22.8038,1987
937,1.111106,22.8038,1987
938,1.108847,22.8044,1987
939,1.058462,22.8044,1987
940,1.042576,22.8050,1987
941,1.100949,22.8050,1987
942,1.105158,22.8069,1987
943,1.070629,22.8069,1987
944,1.066996,22.8075,1987
945,1.065102,22.8075,1987
946,1.064690,22.8081,1987
947,1.097980,22.8081,1987
948,1.092495,22.8094,1987
949,1.043952,22.8094,1987
950,1.032182,22.8100,1987
951,1.091779,22.8100,1987
952,1.102867,22.8119,1987
953,1.053692,22.8119,1987
954,1.052944,22.8125,1987
955,1.058700,22.8125,1987
956,1.063446,22.8131,1987
957,1.086556,22.8131,1987
958,1.078040,22.8144,1987
959,1.027978,22.8144,1987
960,1.019982,22.8150,1987
961,1.085107,22.8150,1987
962,1.093505,22.8163,1987
963,1.036600,22.8162,1987
964,1.030615,22.8175,1987
965,1.051242,22.8175,1987
966,1.055235,22.8181,1987
967,1.068403,22.8181,1987
968,1.058714,22.8194,1987
969,1.020169,22.8194,1987
970,1.017975,22.8200,1987
971,1.071597,22.8200,1987
972,1.082254,22.8219,1987
973,1.013201,22.8219,1987
974,1.021866,22.8225,1987
975,1.040051,22.8225,1987
976,1.049283,22.8237,1987
977,1.057980,22.8238,1987
978,1.047510,22.8244,1987
979,1.009048,22.8243,1987
980,1.007197,22.8250,1987
981,1.065901,22.8250,1987
982,1.072266,22.8269,1987
983,1.004054,22.8268,1987
984,1.005153,22.8275,1987
985,1.033594,22.8275,1987
986,1.045270,22.8281,1987
987,1.041141,22.8281,1987
988,1.038536,22.8294,1987
989,1.002095,22.8293,1987
990,1.000037,22.8300,1987
991,1.058013,22.8300,1987
992,1.061697,22.8319,1987
993,0.989441,22.8318,1987
994,0.995553,22.8325,1987
995,1.029736,22.8325,1987
996,1.033617,22.8331,1987
997,1.029642,22.8331,1987
998,1.019808,22.8344,1987
999,0.988875,22.8343,1987
1000,0.996278,22.8350,1987
1001,1.051508,22.8350,1987
1002,1.055993,22.8369,1987
1003,0.975656,22.8368,1987
1004,0.982203,22.8375,1987
1005,1.022549,22.8375,1987
1006,1.031003,22.8381,1988
1007,1.009357,22.8381,1988
1008,1.001730,22.8393,1988
1009,0.989413,22.8393,1988
1010,0.989282,22.8400,1988
1011,1.030924,22.8400,1988
1012,1.034655,22.8419,1988
1013,0.962408,22.8418,1988
1014,0.975146,22.8425,1988
1015,1.016591,22.8425,1988
1016,1.018770,22.8437,1988
1017,0.994697,22.8437,1988
1018,0.987398,22.8443,1988
1019,0.979046,22.8443,1988
1020,0.982913,22.8450,1988
1021,1.020505,22.8450,1988
1022,1.020421,22.8469,1988
1023,0.951667,22.8468,1988
1024,0.965289,22.8474,1988
1025,1.007243,22.8475,1988
1026,1.015520,22.8481,1988
1027,0.985509,22.8481,1988
1028,0.975459,22.8493,1988
1029,0.974533,22.8493,1988
1030,0.980510,22.8500,1988
1031,1.002287,22.8500,1988
1032,1.005438,22.8518,1988
1033,0.941295,22.8518,1988
1034,0.957096,22.8524,1988
1035,1.002081,22.8525,1988
1036,1.002820,22.8537,1988
1037,0.970573,22.8537,1988
1038,0.963203,22.8543,1988
1039,0.968085,22.8543,1988
1040,0.973921,22.8549,1988
1041,0.992939,22.8550,1988
1042,0.989236,22.8562,1988
1043,0.938471,22.8562,1988
1044,0.947501,22.8568,1988
1045,0.991475,22.8568,1988
1046,0.996002,22.8581,1988
1047,0.955520,22.8581,1988
1048,0.948520,22.8593,1988
1049,0.963881,22.8593,1988
1050,0.971475,22.8600,1988
1051,0.972163,22.8600,1988
1052,0.967880,22.8618,1988
1053,0.925434,22.8618,1988
1054,0.941258,22.8624,1988
1055,0.984190,22.8625,1988
1056,0.980982,22.8637,1988
1057,0.936998,22.8637,1988
1058,0.931026,22.8643,1988
1059,0.958564,22.8643,1988
1060,0.968899,22.8649,1988
1061,0.956236,22.8649,1988
1062,0.949951,22.8668,1988
1063,0.916189,22.8668,1988
1064,0.934117,22.8674,1988
1065,0.971966,22.8674,1988
1066,0.968483,22.8681,1988
1067,0.922694,22.8680,1988
1068,0.921076,22.8693,1988
1069,0.953351,22.8693,1988
1070,0.964592,22.8699,1988
1071,0.942277,22.8699,1988
1072,0.938546,22.8718,1988
1073,0.915076,22.8718,1988
1074,0.932916,22.8724,1988
1075,0.960879,22.8724,1988
1076,0.959345,22.8737,1988
1077,0.916395,22.8737,1988
1078,0.910063,22.8743,1988
1079,0.947094,22.8743,1988
1080,0.960973,22.8749,1988
1081,0.925522,22.8749,1988
1082,0.919743,22.8762,1988
1083,0.914202,22.8762,1988
1084,0.923708,22.8768,1988
1085,0.942399,22.8768,1988
1086,0.941319,22.8781,1988
1087,0.898373,22.8780,1988
1088,0.898097,22.8787,1988
1089,0.938429,22.8787,1988
1090,0.951396,22.8799,1988
1091,0.905696,22.8799,1988
1092,0.904335,22.8818,1988
1093,0.906832,22.8818,1988
1094,0.921824,22.8824,1988
1095,0.930442,22.8824,1988
1096,0.931934,22.8837,1988
1097,0.886860,22.8836,1988
1098,0.888693,22.8843,1988
1099,0.931920,22.8843,1988
1100,0.943334,22.8849,1988
1101,0.892504,22.8849,1988
1102,0.889876,22.8862,1988
1103,0.902146,22.8862,1988
1104,0.913500,22.8874,1988
1105,0.917194,22.8874,1988
1106,0.917517,22.8880,1988
1107,0.878812,22.8880,1988
1108,0.879630,22.8886,1988
1109,0.922502,22.8887,1988
1110,0.933720,22.8899,1988
1111,0.876858,22.8899,1988
1112,0.874889,22.8911,1988
1113,0.905340,22.8912,1988
1114,0.911574,22.8924,1988
1115,0.903587,22.8924,1988
1116,0.904349,22.8937,1988
1117,0.869759,22.8936,1988
1118,0.869914,22.8936,1988
1119,0.913851,22.8937,1988
1120,0.926766,22.8949,1988
1121,0.863072,22.8949,1988
1122,0.859790,22.8961,1988
1123,0.897601,22.8962,1988
1124,0.902268,22.8968,1988
1125,0.888099,22.8968,1988
1126,0.889137,22.8980,1988
1127,0.862932,22.8980,1988
1128,0.865710,22.8986,1988
1129,0.907510,22.8987,1988
1130,0.921230,22.8999,1988
1131,0.846014,22.8999,1988
1132,0.846841,22.9011,1988
1133,0.894164,22.9012,1988
1134,0.900790,22.9024,1988
1135,0.877550,22.9024,1988
1136,0.870713,22.9036,1988
1137,0.851499,22.9036,1988
1138,0.859822,22.9043,1988
1139,0.895787,22.9043,1988
1140,0.902651,22.9049,1988
1141,0.832008,22.9049,1988
1142,0.837807,22.9061,1988
1143,0.885929,22.9061,1988
1144,0.888787,22.9074,1988
1145,0.858901,22.9074,1988
1146,0.859331,22.9080,1988
1147,0.845658,22.9080,1988
1148,0.850316,22.9086,1988
1149,0.885331,22.9087,1988
1150,0.892724,22.9099,1988
1151,0.819397,22.9099,1988
1152,0.827309,22.9111,1988
1153,0.886444,22.9111,1988
1154,0.883082,22.9124,1988
1155,0.845032,22.9124,1988
1156,0.841618,22.9130,1988
1157,0.840552,22.9130,1988
1158,0.839734,22.9136,1988
1159,0.872439,22.9136,1988
1160,0.880510,22.9149,1988
1161,0.811761,22.9149,1988
1162,0.814950,22.9161,1988
1163,0.881375,22.9161,1988
1164,0.876521,22.9168,1988
1165,0.829909,22.9167,1988
1166,0.827683,22.9180,1988
1167,0.831849,22.9180,1988
1168,0.840290,22.9186,1988
1169,0.862432,22.9186,1988
1170,0.861651,22.9199,1988
1171,0.799846,22.9198,1988
1172,0.805537,22.9211,1988
1173,0.873846,22.9211,1988
1174,0.862997,22.9224,1988
1175,0.819345,22.9224,1988
1176,0.807417,22.9236,1988
1177,0.825004,22.9236,1988
1178,0.833846,22.9242,1988
1179,0.848071,22.9243,1988
1180,0.842740,22.9249,1988
1181,0.788969,22.9248,1988
1182,0.800748,22.9261,1988
1183,0.862179,22.9261,1988
1184,0.854304,22.9274,1988
1185,0.803760,22.9273,1988
1186,0.804054,22.9280,1988
1187,0.819406,22.9280,1988
1188,0.822553,22.9286,1988
1189,0.831457,22.9286,1988
1190,0.834412,22.9299,1988
1191,0.780860,22.9298,1988
1192,0.791373,22.9311,1988
1193,0.853309,22.9311,1988
1194,0.841473,22.9324,1988
1195,0.786205,22.9323,1988
1196,0.788324,22.9330,1988
1197,0.813103,22.9330,1988
1198,0.820800,22.9336,1988
1199,0.821571,22.9336,1988
1200,0.822567,22.9349,1988
1201,0.774248,22.9348,1988
1202,0.782899,22.9361,1988
1203,0.848422,22.9361,1988
1204,0.829207,22.9367,1988
1205,0.769469,22.9367,1988
1206,0.773322,22.9380,1989
1207,0.812644,22.9380,1989
1208,0.813954,22.9386,1989
1209,0.803563,22.9386,1989
1210,0.802637,22.9398,1989
1211,0.770222,22.9398,1989
1212,0.783806,22.9411,1989
1213,0.831695,22.9411,1989
1214,0.814613,22.9424,1989
1215,0.764845,22.9423,1989
1216,0.757723,22.9436,1989
1217,0.799098,22.9436,1989
1218,0.809123,22.9442,1989
1219,0.786322,22.9442,1989
1220,0.780047,22.9448,1989
1221,0.758723,22.9448,1989
1222,0.777578,22.9461,1989
1223,0.821468,22.9461,1989
1224,0.802867,22.9473,1989
1225,0.748118,22.9473,1989
1226,0.752934,22.9479,1989
1227,0.792308,22.9480,1989
1228,0.799556,22.9486,1989
1229,0.774057,22.9486,1989
1230,0.770110,22.9498,1989
1231,0.750839,22.9498,1989
1232,0.768656,22.9511,1989
1233,0.808918,22.9511,1989
1234,0.785116,22.9523,1989
1235,0.740402,22.9523,1989
1236,0.741763,22.9529,1989
1237,0.785855,22.9530,1989
1238,0.794145,22.9536,1989
1239,0.757423,22.9536,1989
1240,0.747024,22.9548,1989
1241,0.747150,22.9548,1989
1242,0.762895,22.9554,1989
1243,0.794164,22.9555,1989
1244,0.774608,22.9567,1989
1245,0.730489,22.9567,1989
1246,0.736801,22.9579,1989
1247,0.786837,22.9580,1989
1248,0.783259,22.9586,1989
1249,0.739663,22.9586,1989
1250,0.731887,22.9598,1989
1251,0.745901,22.9598,1989
1252,0.759551,22.9611,1989
1253,0.772209,22.9611,1989
1254,0.746898,22.9623,1989
1255,0.725509,22.9623,1989
1256,0.729390,22.9629,1989
1257,0.772584,22.9630,1989
1258,0.775525,22.9642,1989
1259,0.722796,22.9642,1989
1260,0.714543,22.9648,1989
1261,0.745920,22.9648,1989
1262,0.753888,22.9661,1989
1263,0.752022,22.9661,1989
1264,0.735361,22.9673,1989
1265,0.712700,22.9673,1989
1266,0.717709,22.9679,1989
1267,0.764358,22.9680,1989
1282,0.737564,22.9754,1989
1283,0.719766,22.9754,1989
1284,0.700225,22.9767,1989
1285,0.692827,22.9767,1989
1286,0.704587,22.9779,1989
1287,0.732013,22.9779,1989
1288,0.733514,22.9786,1989
1289,0.680337,22.9785,1989
1290,0.675988,22.9798,1989
1291,0.724531,22.9798,1989
1292,0.729273,22.9804,1989
1293,0.700468,22.9804,1989
1294,0.677751,22.9823,1989
1295,0.693000,22.9823,1989
1296,0.692677,22.9829,1989
1297,0.726243,22.9829,1989
1298,0.720421,22.9842,1989
1299,0.669240,22.9841,1989
1300,0.665677,22.9848,1989
1301,0.718031,22.9848,1989
1302,0.725813,22.9861,1989
1303,0.680903,22.9860,1989
1304,0.659790,22.9873,1989
1305,0.684606,22.9873,1989
1306,0.686088,22.9879,1989
1307,0.709703,22.9879,1989
1308,0.705261,22.9885,1989
1309,0.658003,22.9885,1989
1310,0.650096,22.9898,1989
1355,0.647664,23.0116,1989
1356,0.642941,23.0129,1989
1357,0.622647,23.0129,1989
1358,0.618172,23.0135,1989
1359,0.603858,23.0135,1989
1360,0.603540,23.0141,1989
1361,0.655333,23.0141,1989
1362,0.645588,23.0154,1989
1363,0.572640,23.0153,1989
1364,0.565808,23.0166,1989
1365,0.639388,23.0166,1989
1366,0.638667,23.0173,1989
1367,0.607459,23.0172,1989
1368,0.596806,23.0185,1989
1369,0.596109,23.0185,1989
1370,0.595478,23.0191,1989
1371,0.641440,23.0191,1989
1372,0.621375,23.0204,1989
1373,0.559350,23.0203,1989
1374,0.551774,23.0216,1989
1375,0.624845,23.0216,1989
1376,0.624316,23.0229,1989
1377,0.583100,23.0228,1989
1378,0.578415,23.0235,1989
1379,0.582376,23.0235,1989
1380,0.588964,23.0247,1989
1381,0.625172,23.0247,1989
1382,0.606780,23.0260,1989
1383,0.545541,23.0259,1989
1427,0.497685,23.0472,1990
1428,0.491569,23.0484,1990
1429,0.543807,23.0484,1990
1430,0.543540,23.0491,1990
1431,0.532303,23.0491,1990
1432,0.501866,23.0503,1990
1433,0.499556,23.0503,1990
1434,0.514122,23.0516,1990
1435,0.539832,23.0516,1990
1436,0.529717,23.0522,1990
1437,0.484358,23.0522,1990
1438,0.480987,23.0534,1990
1439,0.530732,23.0534,1990
1440,0.526196,23.0541,1990
1441,0.510690,23.0541,1990
1442,0.489048,23.0553,1990
1443,0.494005,23.0553,1990
1444,0.508015,23.0565,1990
1445,0.533818,23.0566,1990
1446,0.513692,23.0572,1990
1447,0.473276,23.0572,1990
1448,0.475352,23.0584,1990
1449,0.517339,23.0584,1990
1450,0.520617,23.0591,1990
1451,0.487870,23.0590,1990
1452,0.466813,23.0603,1990
1453,0.488950,23.0603,1990
1454,0.501553,23.0615,1990
1455,0.503549,23.0615,1990
1499,0.462287,23.0834,1990
1500,0.453079,23.0840,1990
1501,0.407987,23.0840,1990
1502,0.397573,23.0852,1990
1503,0.454197,23.0853,1990
1504,0.458882,23.0865,1990
1505,0.418850,23.0865,1990
1506,0.414856,23.0871,1990
1507,0.414622,23.0871,1990
1508,0.416390,23.0884,1990
1509,0.444129,23.0884,1990
1510,0.437068,23.0890,1990
1511,0.393318,23.0890,1990
1512,0.384770,23.0902,1990
1513,0.440425,23.0903,1990
1514,0.455235,23.0909,1990
1515,0.400164,23.0909,1990
1516,0.395389,23.0921,1990
1517,0.411620,23.0921,1990
1518,0.409179,23.0934,1990
1519,0.429787,23.0934,1990
1520,0.423320,23.0940,1990
1521,0.384372,23.0940,1990
1522,0.377610,23.0952,1990
1523,0.433266,23.0953,1990
1524,0.438990,23.0959,1990
1525,0.384466,23.0958,1990
1526,0.383694,23.0971,1990
1527,0.400786,23.0971,1990
1528,0.404368,23.0977,1990
1572,0.338794,23.1196,1990
1573,0.376722,23.1196,1990
1574,0.375773,23.1208,1990
1575,0.317863,23.1208,1990
1576,0.334117,23.1227,1990
1577,0.364826,23.1227,1990
1578,0.370451,23.1233,1990
1579,0.347870,23.1233,1990
1580,0.338583,23.1240,1990
1581,0.326369,23.1239,1990
1582,0.333374,23.1252,1990
1583,0.364601,23.1252,1990
1584,0.360641,23.1258,1990
1585,0.304152,23.1258,1990
1586,0.313481,23.1271,1990
1587,0.358644,23.1271,1990
1588,0.360084,23.1277,1990
1589,0.331218,23.1277,1990
1590,0.327300,23.1289,1990
1591,0.324344,23.1289,1990
1592,0.332607,23.1296,1990
1593,0.351419,23.1296,1990
1594,0.344746,23.1308,1990
1595,0.297681,23.1308,1990
1596,0.308501,23.1321,1990
1597,0.348674,23.1321,1990
1598,0.349086,23.1327,1990
1599,0.314108,23.1327,1990
1600,0.310255,23.1339,1990
1643,0.271181,23.1545,1991
1644,0.263802,23.1558,1991
1645,0.258546,23.1558,1991
1646,0.263376,23.1570,1991
1647,0.283937,23.1570,1991
1648,0.282806,23.1577,1991
1649,0.243624,23.1576,1991
1650,0.238737,23.1583,1991
1651,0.273458,23.1583,1991
1652,0.289156,23.1595,1991
1653,0.248978,23.1595,1991
1654,0.246374,23.1608,1991
1655,0.255469,23.1608,1991
1656,0.261810,23.1620,1991
1657,0.278401,23.1620,1991
1658,0.273168,23.1627,1991
1659,0.230952,23.1626,1991
1660,0.231097,23.1639,1991
1661,0.271910,23.1639,1991
1662,0.285696,23.1645,1991
1663,0.235834,23.1645,1991
1664,0.232060,23.1658,1991
1665,0.245668,23.1658,1991
1666,0.252598,23.1670,1991
1667,0.260552,23.1670,1991
1668,0.258518,23.1677,1991
1669,0.219565,23.1676,1991
1670,0.218270,23.1689,1991
1671,0.260019,23.1689,1991
1716,0.215623,23.1920,1991
1717,0.182039,23.1920,1991
1718,0.180865,23.1926,1991
1719,0.172270,23.1926,1991
1720,0.180299,23.1939,1991
1721,0.208562,23.1939,1991
1722,0.210563,23.1945,1991
1723,0.149577,23.1945,1991
1724,0.152158,23.1957,1991
1725,0.213888,23.1958,1991
1726,0.209974,23.1964,1991
1727,0.164559,23.1964,1991
1728,0.167473,23.1976,1991
1729,0.169352,23.1976,1991
1730,0.171134,23.1982,1991
1731,0.190236,23.1982,1991
1732,0.194454,23.1989,1991
1733,0.136469,23.1988,1991
1734,0.140482,23.2007,1991
1735,0.204017,23.2007,1991
1736,0.191658,23.2020,1991
1737,0.156568,23.2020,1991
1738,0.146635,23.2026,1991
1739,0.161094,23.2026,1991
1740,0.165906,23.2038,1991
1741,0.179607,23.2039,1991
1742,0.176820,23.2045,1991
1743,0.122240,23.2044,1991
1744,0.130620,23.2057,1991
1788,0.078658,23.2275,1991
1789,0.127547,23.2276,1991
1790,0.126462,23.2282,1991
1791,0.103025,23.2282,1991
1792,0.100248,23.2288,1991
1793,0.088071,23.2288,1991
1794,0.098176,23.2307,1991
1795,0.132682,23.2307,1991
1796,0.113580,23.2313,1991
1797,0.074622,23.2313,1991
1798,0.075773,23.2325,1991
1799,0.116208,23.2326,1991
1800,0.117073,23.2332,1991
1801,0.089726,23.2332,1991
1802,0.080346,23.2338,1991
1803,0.080318,23.2338,1991
1804,0.092228,23.2357,1991
1805,0.117568,23.2357,1991
1806,0.101838,23.2363,1992
1807,0.061029,23.2363,1992
1808,0.067786,23.2375,1992
1809,0.109581,23.2376,1992
1810,0.109530,23.2382,1992
1811,0.070330,23.2382,1992
1812,0.067795,23.2388,1992
1813,0.075810,23.2388,1992
1814,0.087398,23.2407,1992
1815,0.094520,23.2407,1992
1816,0.077428,23.2419,1992
1817,0.053220,23.2419,1992
1860,0.045565,23.2632,1992
1861,0.002988,23.2631,1992
1862,-0.000089,23.2644,1992
1863,0.045794,23.2644,1992
1864,0.055567,23.2657,1992
1865,0.018532,23.2656,1992
1866,0.006701,23.2663,1992
1867,0.021281,23.2663,1992
1868,0.024938,23.2675,1992
1869,0.038214,23.2675,1992
1870,0.036918,23.2682,1992
1871,-0.005102,23.2681,1992
1872,-0.006238,23.2687,1992
1873,0.041440,23.2688,1992
1874,0.040094,23.2706,1992
1875,0.004377,23.2706,1992
1876,-0.006921,23.2712,1992
1877,0.002768,23.2713,1992
1878,0.010708,23.2725,1992
1879,0.020528,23.2725,1992
1880,0.021104,23.2731,1992
1881,-0.008646,23.2731,1992
1882,-0.019607,23.2737,1992
1883,0.032841,23.2738,1992
1884,0.033126,23.2756,1992
1885,-0.010835,23.2756,1992
1886,-0.031835,23.2762,1992
1887,0.006299,23.2763,1992
1888,0.002792,23.2775,1992
1932,-0.046121,23.2987,1992
1933,-0.017316,23.2987,1992
1934,-0.034435,23.3006,1992
1935,-0.076212,23.3006,1992
1936,-0.076591,23.3012,1992
1937,-0.027426,23.3012,1992
1938,-0.023849,23.3025,1992
1939,-0.055062,23.3025,1992
1940,-0.060893,23.3031,1992
1941,-0.049544,23.3031,1992
1942,-0.053963,23.3043,1992
1943,-0.028791,23.3044,1992
1944,-0.044176,23.3050,1992
1945,-0.073972,23.3050,1992
1946,-0.074833,23.3062,1992
1947,-0.026659,23.3062,1992
1948,-0.038915,23.3075,1992
1949,-0.059186,23.3075,1992
1950,-0.059846,23.3081,1992
1951,-0.070405,23.3081,1992
1952,-0.059654,23.3087,1992
1953,-0.036025,23.3087,1992
1954,-0.056226,23.3100,1992
1955,-0.087103,23.3100,1992
1956,-0.079383,23.3112,1992
1957,-0.040884,23.3112,1992
1958,-0.048216,23.3125,1992
1959,-0.099458,23.3124,1992
1960,-0.077662,23.3131,1992
2004,-0.119472,23.3349,1992
2005,-0.121711,23.3349,1992
2006,-0.113206,23.3362,1993
2007,-0.087094,23.3362,1993
2008,-0.098653,23.3368,1993
2009,-0.134351,23.3368,1993
2010,-0.139303,23.3374,1993
2011,-0.096820,23.3374,1993
2012,-0.100037,23.3387,1993
2013,-0.116694,23.3387,1993
2014,-0.137540,23.3399,1993
2015,-0.125406,23.3399,1993
2016,-0.118251,23.3412,1993
2017,-0.101758,23.3412,1993
2018,-0.103675,23.3424,1993
2019,-0.145336,23.3424,1993
2020,-0.143722,23.3430,1993
2021,-0.102572,23.3431,1993
2022,-0.099046,23.3443,1993
2023,-0.130615,23.3443,1993
2024,-0.148076,23.3449,1993
2025,-0.124760,23.3449,1993
2026,-0.127786,23.3449,1993
2027,-0.109811,23.3462,1993
2028,-0.120042,23.3474,1993
2029,-0.150241,23.3474,1993
2030,-0.148483,23.3480,1993
2031,-0.106607,23.3481,1993
2032,-0.108974,23.3487,1993
2033,-0.145560,23.3487,1993
2076,-0.136886,23.3712,1993
2077,-0.208132,23.3711,1993
2078,-0.191012,23.3718,1993
2079,-0.174332,23.3718,1993
2080,-0.173781,23.3730,1993
2081,-0.150040,23.3730,1993
2082,-0.187580,23.3736,1993
2083,-0.222824,23.3736,1993
2084,-0.222740,23.3736,1993
2085,-0.164068,23.3749,1993
2086,-0.159514,23.3749,1993
2087,-0.215618,23.3761,1993
2088,-0.224943,23.3761,1993
2089,-0.190704,23.3768,1993
2090,-0.200599,23.3780,1993
2091,-0.159476,23.3780,1993
2092,-0.195590,23.3786,1993
2093,-0.219093,23.3786,1993
2094,-0.232041,23.3799,1993
2095,-0.168529,23.3799,1993
2096,-0.168838,23.3812,1993
2097,-0.230760,23.3811,1993
2098,-0.227903,23.3817,1993
2099,-0.194244,23.3818,1993
2100,-0.201885,23.3830,1993
2101,-0.206650,23.3830,1993
2102,-0.211429,23.3830,1993
2103,-0.234894,23.3836,1993
2104,-0.231485,23.3836,1993
2148,-0.269783,23.4061,1993
2149,-0.208216,23.4068,1993
2150,-0.208094,23.4080,1993
2151,-0.244629,23.4080,1993
2152,-0.255623,23.4080,1993
2153,-0.256825,23.4086,1993
2154,-0.243222,23.4086,1993
2155,-0.257447,23.4098,1993
2156,-0.226313,23.4099,1993
2157,-0.287861,23.4111,1993
2158,-0.297634,23.4111,1993
2159,-0.226500,23.4117,1993
2160,-0.214856,23.4117,1993
2161,-0.260556,23.4130,1993
2162,-0.267706,23.4130,1993
2163,-0.253991,23.4136,1993
2164,-0.275890,23.4136,1993
2165,-0.242446,23.4149,1993
2166,-0.268511,23.4148,1993
2167,-0.313425,23.4154,1993
2168,-0.287197,23.4155,1993
2169,-0.260898,23.4167,1993
2170,-0.229731,23.4167,1993
2171,-0.275670,23.4180,1993
2172,-0.298925,23.4180,1993
2173,-0.265499,23.4186,1993
2174,-0.246818,23.4186,1993
2175,-0.275371,23.4198,1993
2176,-0.283208,23.4198,1993
2220,-0.293257,23.4417,1994
2221,-0.344990,23.4429,1994
2222,-0.343605,23.4429,1994
2223,-0.295806,23.4436,1994
2224,-0.273912,23.4436,1994
2225,-0.333631,23.4448,1994
2226,-0.351569,23.4448,1994
2227,-0.327449,23.4454,1994
2228,-0.306257,23.4454,1994
2229,-0.306149,23.4467,1994
2230,-0.320627,23.4467,1994
2231,-0.353566,23.4479,1994
2232,-0.348314,23.4479,1994
2233,-0.298134,23.4479,1994
2234,-0.305293,23.4479,1994
2235,-0.358775,23.4498,1994
2236,-0.352177,23.4498,1994
2237,-0.336937,23.4511,1994
2238,-0.313612,23.4511,1994
2239,-0.324499,23.4517,1994
2240,-0.330568,23.4517,1994
2241,-0.355735,23.4529,1994
2242,-0.359271,23.4529,1994
2243,-0.311120,23.4536,1994
2244,-0.309755,23.4536,1994
2245,-0.367155,23.4548,1994
2246,-0.370886,23.4548,1994
2247,-0.330774,23.4554,1994
2248,-0.334253,23.4554,1994
2294,-0.362427,23.4779,1994
2295,-0.420416,23.4798,1994
2296,-0.410564,23.4798,1994
2297,-0.357377,23.4804,1994
2298,-0.359972,23.4804,1994
2299,-0.400426,23.4816,1994
2300,-0.409109,23.4816,1994
2301,-0.391321,23.4829,1994
2302,-0.384863,23.4829,1994
2303,-0.371658,23.4835,1994
2304,-0.374716,23.4835,1994
2305,-0.429586,23.4847,1994
2306,-0.416339,23.4848,1994
2307,-0.360767,23.4854,1994
2308,-0.366187,23.4854,1994
2309,-0.420210,23.4866,1994
2310,-0.415955,23.4866,1994
2311,-0.395768,23.4873,1994
2312,-0.390470,23.4873,1994
2313,-0.385616,23.4879,1994
2314,-0.387781,23.4879,1994
2315,-0.435871,23.4897,1994
2316,-0.424452,23.4897,1994
2317,-0.362188,23.4904,1994
2318,-0.378181,23.4904,1994
2319,-0.426388,23.4916,1994
2320,-0.429235,23.4916,1994
2321,-0.401263,23.4923,1994
2322,-0.392607,23.4923,1994
2323,-0.402118,23.4935,1994
2366,-0.439345,23.5141,1994
2367,-0.423021,23.5154,1994
2368,-0.432238,23.5154,1994
2369,-0.477985,23.5166,1994
2370,-0.467145,23.5166,1994
2371,-0.422689,23.5172,1994
2372,-0.423863,23.5172,1994
2373,-0.459579,23.5185,1994
2374,-0.469465,23.5185,1994
2375,-0.453650,23.5191,1994
2376,-0.440430,23.5191,1994
2377,-0.432448,23.5204,1994
2378,-0.451181,23.5204,1994
2379,-0.476315,23.5216,1994
2380,-0.477026,23.5216,1994
2381,-0.430587,23.5222,1994
2382,-0.429530,23.5222,1994
2383,-0.470620,23.5235,1994
2384,-0.481057,23.5235,1994
2385,-0.454884,23.5247,1994
2386,-0.441019,23.5247,1994
2387,-0.444054,23.5254,1994
2388,-0.462810,23.5254,1994
2389,-0.483414,23.5266,1994
2390,-0.478705,23.5266,1994
2391,-0.437606,23.5272,1994
2392,-0.438527,23.5272,1994
2393,-0.484050,23.5285,1994
2394,-0.489951,23.5285,1994
2438,-0.528534,23.5503,1995
2439,-0.495272,23.5516,1995
2440,-0.494085,23.5516,1995
2441,-0.485733,23.5522,1995
2442,-0.489521,23.5522,1995
2443,-0.526664,23.5534,1995
2444,-0.530596,23.5534,1995
2445,-0.477606,23.5541,1995
2446,-0.472139,23.5541,1995
2447,-0.522483,23.5553,1995
2448,-0.533126,23.5553,1995
2449,-0.499163,23.5566,1995
2450,-0.498097,23.5566,1995
2451,-0.494950,23.5572,1995
2452,-0.503998,23.5572,1995
2453,-0.532574,23.5584,1995
2454,-0.533219,23.5584,1995
2455,-0.478508,23.5591,1995
2456,-0.486411,23.5591,1995
2457,-0.534019,23.5603,1995
2458,-0.545532,23.5603,1995
2459,-0.499093,23.5616,1995
2460,-0.505579,23.5616,1995
2461,-0.511513,23.5622,1995
2462,-0.511910,23.5622,1995
2463,-0.535689,23.5634,1995
2464,-0.538097,23.5634,1995
2465,-0.487561,23.5641,1995
2466,-0.488810,23.5641,1995
2510,-0.530250,23.5866,1995
2511,-0.561735,23.5872,1995
2512,-0.569731,23.5872,1995
2513,-0.553360,23.5884,1995
2514,-0.556119,23.5884,1995
2515,-0.531452,23.5891,1995
2516,-0.548291,23.5891,1995
2517,-0.580622,23.5903,1995
2518,-0.583072,23.5903,1995
2519,-0.527772,23.5916,1995
2520,-0.536642,23.5916,1995
2521,-0.575086,23.5922,1995
2522,-0.579074,23.5922,1995
2523,-0.555656,23.5934,1995
2524,-0.554548,23.5934,1995
2525,-0.542446,23.5941,1995
2526,-0.557442,23.5940,1995
2527,-0.586533,23.5953,1995
2528,-0.586575,23.5953,1995
2529,-0.531111,23.5959,1995
2530,-0.545495,23.5959,1995
2531,-0.583264,23.5972,1995
2532,-0.588193,23.5972,1995
2533,-0.556544,23.5978,1995
2534,-0.557204,23.5978,1995
2535,-0.553818,23.5990,1995
2536,-0.576259,23.5990,1995
2537,-0.587038,23.6009,1995
2538,-0.587014,23.6009,1995
2582,-0.622941,23.6228,1995
2583,-0.576180,23.6234,1995
2584,-0.580271,23.6234,1995
2585,-0.621814,23.6240,1995
2586,-0.637115,23.6240,1995
2587,-0.602207,23.6253,1995
2588,-0.594805,23.6253,1995
2589,-0.597325,23.6259,1995
2590,-0.610330,23.6259,1995
2591,-0.630395,23.6271,1995
2592,-0.628772,23.6271,1995
2593,-0.582904,23.6278,1995
2594,-0.586477,23.6278,1995
2595,-0.625845,23.6290,1995
2596,-0.650671,23.6290,1995
2597,-0.602932,23.6303,1995
2598,-0.591770,23.6303,1995
2599,-0.608833,23.6315,1995
2600,-0.616427,23.6315,1995
2601,-0.636909,23.6321,1995
2602,-0.634005,23.6321,1995
2603,-0.593608,23.6328,1995
2604,-0.594365,23.6328,1995
2605,-0.637489,23.6340,1995
2606,-0.657372,23.6340,1996
2607,-0.610877,23.6353,1996
2608,-0.598630,23.6353,1996
2609,-0.618176,23.6359,1996
2610,-0.629708,23.6359,1996
2611,-0.635347,23.6371,1996
2612,-0.633257,23.6371,1996
2613,-0.600603,23.6378,1996
2662,-0.646743,23.6627,1996
2663,-0.640122,23.6627,1996
2664,-0.653762,23.6627,1996
2665,-0.685336,23.6640,1996
2666,-0.686364,23.6640,1996
2667,-0.627066,23.6653,1996
2668,-0.630442,23.6652,1996
2669,-0.693776,23.6665,1996
2670,-0.687650,23.6665,1996
2671,-0.656292,23.6671,1996
2672,-0.653220,23.6671,1996
2673,-0.652579,23.6677,1996
2674,-0.659537,23.6677,1996
2675,-0.688165,23.6690,1996
2676,-0.692340,23.6690,1996
2677,-0.636947,23.6703,1996
2678,-0.633636,23.6703,1996
2679,-0.704288,23.6715,1996
2680,-0.695067,23.6715,1996
2681,-0.659841,23.6721,1996
2682,-0.655539,23.6721,1996
2683,-0.659635,23.6727,1996
2684,-0.673004,23.6727,1996
2685,-0.693528,23.6740,1996
2686,-0.689993,23.6740,1996
2687,-0.648253,23.6752,1996
2688,-0.638728,23.6752,1996
2689,-0.709619,23.6758,1996
2690,-0.706734,23.6758,1996
2734,-0.727861,23.6977,1996
2735,-0.706949,23.6990,1996
2736,-0.697073,23.6990,1996
2737,-0.702128,23.7002,1996
2738,-0.698728,23.7002,1996
2739,-0.738195,23.7014,1996
2740,-0.722665,23.7015,1996
2741,-0.688029,23.7021,1996
2742,-0.686481,23.7021,1996
2743,-0.730517,23.7027,1996
2744,-0.731756,23.7027,1996
2745,-0.709661,23.7040,1996
2746,-0.694594,23.7040,1996
2747,-0.711840,23.7052,1996
2748,-0.711625,23.7052,1996
2749,-0.742652,23.7064,1996
2750,-0.725270,23.7064,1996
2751,-0.698176,23.7071,1996
2752,-0.690423,23.7071,1996
2753,-0.737353,23.7077,1996
2754,-0.740622,23.7077,1996
2755,-0.711181,23.7090,1996
2756,-0.698826,23.7090,1996
2757,-0.725476,23.7102,1996
2758,-0.723895,23.7102,1996
2759,-0.735796,23.7114,1996
2760,-0.721819,23.7115,1996
2761,-0.701394,23.7121,1996
2762,-0.701838,23.7121,1996
2763,-0.745569,23.7127,1996
2806,-0.716432,23.7340,1997
2807,-0.777526,23.7345,1997
2808,-0.783961,23.7345,1997
2809,-0.738508,23.7358,1997
2810,-0.736661,23.7358,1997
2811,-0.756367,23.7371,1997
2812,-0.754075,23.7371,1997
2813,-0.774632,23.7377,1997
2814,-0.767454,23.7377,1997
2815,-0.730334,23.7389,1997
2816,-0.727936,23.7389,1997
2817,-0.784152,23.7395,1997
2818,-0.787337,23.7395,1997
2819,-0.744405,23.7414,1997
2820,-0.738953,23.7414,1997
2821,-0.757718,23.7421,1997
2822,-0.769591,23.7421,1997
2823,-0.782165,23.7433,1997
2824,-0.773757,23.7433,1997
2825,-0.738101,23.7439,1997
2826,-0.730802,23.7439,1997
2827,-0.793552,23.7452,1997
2828,-0.791293,23.7452,1997
2829,-0.743531,23.7464,1997
2830,-0.740917,23.7464,1997
2831,-0.770526,23.7470,1997
2832,-0.772373,23.7470,1997
2833,-0.780435,23.7477,1997
2834,-0.778990,23.7477,1997
2843,-0.783502,23.7527,1997
2844,-0.777208,23.7527,1997
2845,-0.754894,23.7539,1997
2846,-0.748763,23.7539,1997
2847,-0.812411,23.7545,1997
2848,-0.805228,23.7545,1997
2849,-0.747491,23.7558,1997
2850,-0.751583,23.7558,1997
2851,-0.794749,23.7564,1997
2852,-0.792013,23.7564,1997
2853,-0.784218,23.7577,1997
2854,-0.777793,23.7577,1997
2855,-0.760140,23.7583,1997
2856,-0.758971,23.7583,1997
2857,-0.819303,23.7595,1997
2915,-0.820701,23.7883,1997
2916,-0.821319,23.7883,1997
2917,-0.832074,23.7895,1997
2918,-0.818751,23.7895,1997
2919,-0.786776,23.7908,1997
2920,-0.805378,23.7908,1997
2921,-0.840800,23.7920,1997
2922,-0.839425,23.7920,1997
2923,-0.800945,23.7927,1997
2924,-0.794978,23.7927,1997
2925,-0.826715,23.7933,1997
2926,-0.826781,23.7933,1997
2927,-0.828314,23.7945,1997
2928,-0.808043,23.7945,1997
2929,-0.775464,23.7945,1997
2930,-0.790451,23.7958,1997
2931,-0.828020,23.7958,1997
2932,-0.820341,23.7964,1997
2933,-0.778789,23.7977,1997
2934,-0.777784,23.7977,1997
2935,-0.816301,23.7983,1997
2936,-0.824559,23.7983,1997
2937,-0.810989,23.7995,1997
2938,-0.796371,23.7995,1997
2939,-0.789002,23.8008,1997
2940,-0.807239,23.8008,1997
2941,-0.823376,23.8020,1997
2942,-0.829404,23.8020,1997
2943,-0.785887,23.8033,1997
2987,-0.810989,23.8233,1997
2988,-0.803975,23.8252,1997
2989,-0.841258,23.8251,1997
2990,-0.861473,23.8257,1997
2991,-0.835763,23.8258,1997
2992,-0.835413,23.8270,1997
2993,-0.814515,23.8276,1997
2994,-0.818709,23.8276,1997
2995,-0.860879,23.8276,1997
2996,-0.865640,23.8282,1997
2997,-0.811246,23.8283,1997
2998,-0.809385,23.8295,1997
2999,-0.852406,23.8295,1997
3000,-0.868202,23.8307,1997
3001,-0.836610,23.8308,1997
3002,-0.837550,23.8320,1997
3003,-0.821880,23.8320,1997
3004,-0.832429,23.8326,1997
3005,-0.865700,23.8326,1997
3006,-0.866028,23.8332,1998
3007,-0.814955,23.8333,1998
3008,-0.811924,23.8345,1998
3009,-0.865265,23.8345,1998
3010,-0.877302,23.8357,1998
3011,-0.840384,23.8358,1998
3012,-0.834744,23.8364,1998
3013,-0.834057,23.8364,1998
3014,-0.839668,23.8376,1998
3015,-0.867594,23.8376,1998
3016,-0.870166,23.8382,1998
3059,-0.900912,23.8595,1998
3060,-0.900496,23.8607,1998
3061,-0.848772,23.8608,1998
3062,-0.850461,23.8620,1998
3063,-0.880870,23.8620,1998
3064,-0.887388,23.8626,1998
3065,-0.876563,23.8626,1998
3066,-0.877428,23.8632,1998
3067,-0.851807,23.8633,1998
3068,-0.866285,23.8645,1998
3069,-0.909254,23.8645,1998
3070,-0.909104,23.8657,1998
3071,-0.849890,23.8657,1998
3072,-0.856984,23.8670,1998
3073,-0.888731,23.8670,1998
3074,-0.899841,23.8676,1998
3075,-0.881908,23.8676,1998
3076,-0.879425,23.8682,1998
3077,-0.855871,23.8682,1998
3078,-0.878204,23.8695,1998
3079,-0.911284,23.8695,1998
3080,-0.904770,23.8707,1998
3081,-0.856282,23.8707,1998
3082,-0.860224,23.8720,1998
3083,-0.898882,23.8720,1998
3084,-0.899963,23.8726,1998
3085,-0.883465,23.8726,1998
3086,-0.877601,23.8732,1998
3087,-0.863610,23.8732,1998
3131,-0.885990,23.8951,1998
3132,-0.899893,23.8963,1998
3133,-0.931756,23.8963,1998
3134,-0.933697,23.8969,1998
3135,-0.890867,23.8970,1998
3136,-0.889708,23.8982,1998
3137,-0.920238,23.8982,1998
3138,-0.938022,23.8994,1998
3139,-0.913285,23.8995,1998
3140,-0.904508,23.9007,1998
3141,-0.903002,23.9007,1998
3142,-0.906369,23.9020,1998
3143,-0.940818,23.9019,1998
3144,-0.937461,23.9026,1998
3145,-0.891891,23.9026,1998
3146,-0.893126,23.9032,1998
3147,-0.929306,23.9032,1998
3148,-0.947365,23.9044,1998
3149,-0.911634,23.9045,1998
3150,-0.905265,23.9057,1998
3151,-0.907669,23.9057,1998
3152,-0.918536,23.9063,1998
3153,-0.940440,23.9063,1998
3154,-0.940346,23.9069,1998
3155,-0.893972,23.9070,1998
3156,-0.892528,23.9082,1998
3157,-0.935520,23.9082,1998
3158,-0.956306,23.9094,1998
3159,-0.914319,23.9095,1998
3203,-0.917667,23.9313,1998
3204,-0.915492,23.9320,1998
3205,-0.892986,23.9320,1998
3206,-0.900281,23.9332,1999
3207,-0.944564,23.9332,1999
3208,-0.951564,23.9338,1999
3209,-0.888955,23.9339,1999
3210,-0.879023,23.9351,1999
3211,-0.937180,23.9351,1999
3212,-0.942464,23.9363,1999
3213,-0.919813,23.9363,1999
3214,-0.911938,23.9370,1999
3215,-0.904938,23.9370,1999
3216,-0.908347,23.9382,1999
3217,-0.943689,23.9382,1999
3218,-0.952102,23.9388,1999
3219,-0.895684,23.9388,1999
3220,-0.888160,23.9407,1999
3221,-0.952981,23.9407,1999
3222,-0.948501,23.9419,1999
3223,-0.921796,23.9420,1999
3224,-0.915703,23.9426,1999
3225,-0.909142,23.9426,1999
3226,-0.914216,23.9432,1999
3227,-0.946972,23.9432,1999
3228,-0.955034,23.9438,1999
3229,-0.896671,23.9438,1999
3230,-0.888202,23.9457,1999
3231,-0.959663,23.9457,1999
3275,-0.953402,23.9669,1999
3276,-0.963068,23.9682,1999
3277,-0.956694,23.9682,1999
3278,-0.949998,23.9688,1999
3279,-0.932981,23.9688,1999
3280,-0.934323,23.9707,1999
3281,-0.980454,23.9707,1999
3282,-0.970264,23.9713,1999
3283,-0.928244,23.9713,1999
3284,-0.925770,23.9720,1999
3285,-0.963297,23.9719,1999
3286,-0.969521,23.9732,1999
3287,-0.957049,23.9732,1999
3288,-0.947047,23.9738,1999
3289,-0.936007,23.9738,1999
3290,-0.941216,23.9751,1999
3291,-0.985172,23.9750,1999
3292,-0.975684,23.9763,1999
3293,-0.934057,23.9763,1999
3294,-0.931429,23.9770,1999
3295,-0.974244,23.9769,1999
3296,-0.977741,23.9782,1999
3297,-0.954548,23.9782,1999
3298,-0.944012,23.9788,1999
3299,-0.949049,23.9788,1999
3300,-0.950049,23.9807,1999
3301,-0.985649,23.9807,1999
3302,-0.972266,23.9813,1999
3303,-0.937316,23.9813,1999
3304,-0.936446,23.9826,1999
3347,-0.939771,24.0032,1999
3348,-0.923049,24.0038,1999
3349,-0.974183,24.0038,1999
3350,-0.979121,24.0057,1999
3351,-0.959266,24.0057,1999
3352,-0.952083,24.0063,1999
3353,-0.948501,24.0063,1999
3354,-0.946855,24.0069,1999
3355,-0.982792,24.0069,1999
3356,-0.980608,24.0075,1999
3357,-0.941169,24.0076,1999
3358,-0.928702,24.0088,1999
3359,-0.984003,24.0088,1999
3360,-0.989025,24.0100,1999
3361,-0.953809,24.0101,1999
3362,-0.952630,24.0113,1999
3363,-0.954239,24.0113,1999
3364,-0.956301,24.0119,1999
3365,-0.988071,24.0119,1999
3366,-0.982820,24.0125,1999
3367,-0.941772,24.0126,1999
3368,-0.932963,24.0138,1999
3369,-0.989521,24.0138,1999
3370,-0.996764,24.0150,1999
3371,-0.953439,24.0151,1999
3372,-0.954108,24.0157,1999
3373,-0.967328,24.0157,1999
3374,-0.967014,24.0169,1999
3375,-0.987940,24.0169,1999
3419,-1.026411,24.0388,2000
3420,-1.016343,24.0400,2000
3421,-0.955567,24.0401,2000
3422,-0.964438,24.0413,2000
3423,-1.005078,24.0413,2000
3424,-1.010170,24.0425,2000
3425,-0.996554,24.0425,2000
3426,-0.986201,24.0432,2000
3427,-0.973243,24.0432,2000
3428,-0.974309,24.0438,2000
3429,-1.026645,24.0438,2000
3430,-1.019556,24.0450,2000
3431,-0.960304,24.0451,2000
3432,-0.968847,24.0457,2000
3433,-1.016484,24.0456,2000
3434,-1.014964,24.0469,2000
3435,-0.997751,24.0469,2000
3436,-0.989310,24.0475,2000
3437,-0.984957,24.0475,2000
3438,-0.979701,24.0488,2000
3439,-1.028829,24.0488,2000
3440,-1.016259,24.0500,2000
3441,-0.960131,24.0501,2000
3442,-0.974230,24.0507,2000
3443,-1.022263,24.0506,2000
3444,-1.019706,24.0519,2000
3445,-0.996722,24.0519,2000
3446,-0.988090,24.0525,2000
3447,-0.992397,24.0525,2000
3491,-0.961801,24.0744,2000
3492,-0.977550,24.0757,2000
3493,-1.016077,24.0757,2000
3494,-1.006612,24.0769,2000
3495,-0.965831,24.0769,2000
3496,-0.962044,24.0776,2000
3497,-1.003091,24.0775,2000
3498,-1.009315,24.0788,2000
3499,-0.991831,24.0788,2000
3500,-0.980168,24.0800,2000
3501,-0.973505,24.0800,2000
3502,-0.989044,24.0813,2000
3503,-1.012715,24.0813,2000
3504,-1.014374,24.0819,2000
3505,-0.968960,24.0819,2000
3506,-0.964414,24.0826,2000
3507,-1.008085,24.0825,2000
3508,-1.017831,24.0838,2000
3509,-0.988749,24.0838,2000
3510,-0.974683,24.0851,2000
3511,-0.982072,24.0850,2000
3512,-0.997157,24.0857,2000
3513,-1.016820,24.0856,2000
3514,-1.012420,24.0869,2000
3515,-0.969062,24.0869,2000
3516,-0.968422,24.0875,2000
3517,-1.014463,24.0875,2000
3518,-1.021534,24.0888,2000
3519,-0.989591,24.0888,2000
3520,-0.982422,24.0894,2000
3563,-0.986575,24.1107,2000
3564,-0.983858,24.1119,2000
3565,-0.974632,24.1119,2000
3566,-0.979771,24.1125,2000
3567,-1.016788,24.1125,2000
3568,-1.017639,24.1138,2000
3569,-0.959294,24.1138,2000
3570,-0.962492,24.1144,2000
3571,-1.013486,24.1144,2000
3572,-1.018471,24.1156,2000
3573,-0.985537,24.1157,2000
3574,-0.982941,24.1163,2000
3575,-0.982273,24.1163,2000
3576,-0.987706,24.1175,2000
3577,-1.017615,24.1175,2000
3578,-1.016128,24.1188,2000
3579,-0.964784,24.1188,2000
3580,-1.019907,24.1194,2000
3581,-1.023072,24.1194,2000
3582,-0.987893,24.1213,2000
3583,-0.984718,24.1213,2000
3584,-0.986743,24.1219,2000
3585,-0.988932,24.1219,2000
3586,-1.023325,24.1225,2000
3587,-1.017307,24.1225,2000
3588,-0.975099,24.1238,2000
3589,-0.964859,24.1238,2000
3590,-1.021866,24.1244,2000
3591,-1.023418,24.1244,2000
3636,-0.992588,24.1475,2001
3637,-0.983475,24.1475,2001
3638,-0.960285,24.1482,2001
3639,-0.956918,24.1482,2001
3640,-1.022797,24.1494,2001
3641,-1.005682,24.1494,2001
3642,-0.948179,24.1507,2001
3643,-0.956254,24.1507,2001
3644,-0.993538,24.1513,2001
3645,-0.998270,24.1513,2001
3646,-0.991054,24.1525,2001
3647,-0.985228,24.1525,2001
3648,-0.970035,24.1532,2001
3649,-0.964728,24.1532,2001
3650,-1.019846,24.1544,2001
3651,-1.015572,24.1544,2001
3652,-0.950718,24.1557,2001
3653,-0.954908,24.1557,2001
3654,-1.007805,24.1563,2001
3655,-1.004050,24.1563,2001
3656,-0.987931,24.1575,2001
3657,-0.980921,24.1575,2001
3658,-0.977064,24.1582,2001
3659,-0.976946,24.1582,2001
3660,-1.022034,24.1594,2001
3661,-1.013626,24.1594,2001
3662,-0.957148,24.1607,2001
3663,-0.967880,24.1607,2001
3664,-1.010012,24.1613,2001
3708,-1.014814,24.1832,2001
3709,-1.020075,24.1831,2001
3710,-1.015539,24.1844,2001
3711,-1.005972,24.1844,2001
3712,-0.986500,24.1857,2001
3713,-0.997886,24.1857,2001
3714,-1.037872,24.1863,2001
3715,-1.028417,24.1863,2001
3716,-0.985149,24.1875,2001
3717,-0.984433,24.1875,2001
3718,-1.020192,24.1882,2001
3719,-1.027501,24.1881,2001
3720,-1.017349,24.1894,2001
3721,-1.002563,24.1894,2001
3722,-0.991312,24.1907,2001
3723,-1.005326,24.1907,2001
3724,-1.037494,24.1906,2001
3725,-1.035848,24.1913,2001
3726,-0.985682,24.1913,2001
3727,-0.988735,24.1925,2001
3728,-1.029614,24.1931,2001
3729,-1.034852,24.1931,2001
3730,-1.018854,24.1944,2001
3731,-1.006112,24.1944,2001
3732,-0.998761,24.1950,2001
3733,-1.017082,24.1950,2001
3734,-1.044120,24.1963,2001
3735,-1.030797,24.1963,2001
3736,-0.993566,24.1975,2001
3780,-1.009853,24.2175,2001
3781,-1.006453,24.2194,2001
3782,-1.046275,24.2194,2001
3783,-1.063063,24.2206,2001
3784,-1.032948,24.2206,2001
3785,-1.035590,24.2213,2001
3786,-1.017718,24.2225,2001
3787,-1.021595,24.2225,2001
3788,-1.061445,24.2231,2001
3789,-1.068052,24.2231,2001
3790,-1.010540,24.2244,2001
3791,-1.004676,24.2244,2001
3792,-1.053005,24.2250,2001
3793,-1.066678,24.2250,2001
3794,-1.031709,24.2263,2001
3795,-1.029091,24.2263,2001
3796,-1.022876,24.2269,2001
3797,-1.028997,24.2269,2001
3798,-1.065050,24.2275,2001
3799,-1.069091,24.2275,2001
3800,-1.012761,24.2275,2001
3801,-1.014655,24.2294,2001
3802,-1.063054,24.2294,2001
3803,-1.076385,24.2300,2001
3804,-1.037134,24.2300,2001
3805,-1.032415,24.2313,2001
3806,-1.033135,24.2313,2002
3807,-1.039340,24.2325,2002
3808,-1.066860,24.2325,2002
3809,-1.068637,24.2331,2002
3852,-1.086481,24.2537,2002
3853,-1.088188,24.2550,2002
3854,-1.033271,24.2550,2002
3855,-1.039018,24.2563,2002
3856,-1.073771,24.2562,2002
3857,-1.076297,24.2569,2002
3858,-1.062118,24.2569,2002
3859,-1.064447,24.2575,2002
3860,-1.038223,24.2575,2002
3861,-1.056839,24.2588,2002
3862,-1.087599,24.2587,2002
3863,-1.084938,24.2600,2002
3864,-1.037203,24.2600,2002
3865,-1.041735,24.2613,2002
3866,-1.081819,24.2612,2002
3867,-1.085728,24.2619,2002
3868,-1.060524,24.2619,2002
3869,-1.060285,24.2631,2002
3870,-1.046359,24.2631,2002
3871,-1.060907,24.2644,2002
3872,-1.087234,24.2644,2002
3873,-1.085247,24.2650,2002
3874,-1.032948,24.2650,2002
3875,-1.040514,24.2663,2002
3876,-1.085710,24.2662,2002
3877,-1.091719,24.2669,2002
3878,-1.060430,24.2669,2002
3879,-1.059140,24.2675,2002
3880,-1.049843,24.2675,2002
3925,-1.074599,24.2912,2002
3926,-1.108964,24.2912,2002
3927,-1.102525,24.2918,2002
3928,-1.061080,24.2919,2002
3929,-1.060655,24.2925,2002
3930,-1.089395,24.2925,2002
3931,-1.109390,24.2937,2002
3932,-1.078705,24.2937,2002
3933,-1.073814,24.2950,2002
3934,-1.070255,24.2950,2002
3935,-1.082306,24.2962,2002
3936,-1.105335,24.2962,2002
3937,-1.100514,24.2969,2002
3938,-1.061969,24.2969,2002
3939,-1.067557,24.2975,2002
3940,-1.100818,24.2975,2002
3941,-1.111316,24.2987,2002
3942,-1.079986,24.2987,2002
3943,-1.068473,24.3000,2002
3944,-1.080248,24.3000,2002
3945,-1.087445,24.3012,2002
3946,-1.112261,24.3012,2002
3947,-1.103446,24.3019,2002
3948,-1.064779,24.3019,2002
3949,-1.069900,24.3031,2002
3950,-1.108076,24.3031,2002
3951,-1.117947,24.3037,2002
3952,-1.078172,24.3037,2002
3953,-1.067112,24.3050,2002
3997,-1.107814,24.3268,2002
3998,-1.090493,24.3269,2002
3999,-1.099140,24.3275,2002
4000,-1.129366,24.3275,2002
4001,-1.128151,24.3281,2002
4002,-1.075057,24.3281,2002
4003,-1.066542,24.3300,2002
4004,-1.122609,24.3300,2002
4005,-1.125635,24.3312,2002
4006,-1.105780,24.3312,2003
4007,-1.105462,24.3318,2003
4008,-1.096170,24.3319,2003
4009,-1.104849,24.3325,2003
4010,-1.130746,24.3325,2003
4011,-1.129249,24.3337,2003
4012,-1.080075,24.3337,2003
4013,-1.071429,24.3350,2003
4014,-1.126411,24.3350,2003
4015,-1.129942,24.3356,2003
4016,-1.100875,24.3356,2003
4017,-1.097793,24.3369,2003
4018,-1.100846,24.3369,2003
4019,-1.107136,24.3375,2003
4020,-1.128927,24.3375,2003
4021,-1.124901,24.3381,2003
4022,-1.085780,24.3381,2003
4023,-1.078256,24.3400,2003
4024,-1.134585,24.3400,2003
4025,-1.131597,24.3412,2003
4070,-1.127075,24.3631,2003
4071,-1.119537,24.3637,2003
4072,-1.109624,24.3637,2003
4073,-1.113678,24.3650,2003
4074,-1.152565,24.3649,2003
4075,-1.136666,24.3656,2003
4076,-1.110264,24.3656,2003
4077,-1.103077,24.3669,2003
4078,-1.136582,24.3668,2003
4079,-1.142904,24.3675,2003
4080,-1.128768,24.3675,2003
4081,-1.119738,24.3681,2003
4082,-1.119921,24.3681,2003
4083,-1.117297,24.3700,2003
4084,-1.150503,24.3699,2003
4085,-1.138148,24.3706,2003
4086,-1.110475,24.3706,2003
4087,-1.106547,24.3718,2003
4088,-1.140514,24.3718,2003
4089,-1.143128,24.3725,2003
4090,-1.128586,24.3725,2003
4091,-1.118031,24.3731,2003
4092,-1.123755,24.3731,2003
4093,-1.128347,24.3750,2003
4094,-1.148946,24.3749,2003
4095,-1.138373,24.3756,2003
4096,-1.111691,24.3756,2003
4097,-1.114029,24.3768,2003
4098,-1.143727,24.3768,2003
4099,-1.146879,24.3774,2003
4142,-1.127496,24.3981,2003
4143,-1.123778,24.4000,2003
4144,-1.103690,24.4000,2003
4145,-1.097059,24.4006,2003
4146,-1.100585,24.4006,2003
4147,-1.107332,24.4018,2003
4148,-1.131012,24.4018,2003
4149,-1.129137,24.4025,2003
4150,-1.095516,24.4025,2003
4151,-1.087650,24.4037,2003
4152,-1.134379,24.4037,2003
4153,-1.133206,24.4050,2003
4154,-1.104148,24.4050,2003
4155,-1.098990,24.4056,2003
4156,-1.108829,24.4056,2003
4157,-1.111719,24.4068,2003
4158,-1.132467,24.4068,2003
4159,-1.127814,24.4075,2003
4160,-1.093893,24.4075,2003
4161,-1.081959,24.4081,2003
4162,-1.139196,24.4081,2003
4163,-1.133252,24.4100,2003
4164,-1.073182,24.4100,2003
4165,-1.057508,24.4106,2003
4166,-1.078714,24.4106,2003
4167,-1.081693,24.4119,2003
4168,-1.099808,24.4119,2003
4169,-1.091153,24.4125,2003
4170,-1.059331,24.4125,2003
4214,-1.020051,24.4344,2004
4215,-1.023872,24.4356,2004
4216,-1.080435,24.4356,2004
4217,-1.076708,24.4369,2004
4218,-1.052280,24.4369,2004
4219,-1.048576,24.4375,2004
4220,-1.047323,24.4375,2004
4221,-1.046425,24.4381,2004
4222,-1.083297,24.4381,2004
4223,-1.042464,24.4400,2004
4224,-0.986603,24.4400,2004
4225,-0.999972,24.4413,2004
4226,-1.044784,24.4413,2004
4227,-1.051401,24.4419,2004
4228,-1.018981,24.4419,2004
4229,-1.011480,24.4425,2004
4230,-1.019257,24.4425,2004
4231,-1.020991,24.4438,2004
4232,-1.058434,24.4437,2004
4233,-1.041183,24.4450,2004
4234,-0.991705,24.4450,2004
4235,-0.998326,24.4457,2004
4236,-1.052925,24.4456,2004
4237,-1.048123,24.4469,2004
4238,-1.020725,24.4469,2004
4239,-1.015235,24.4475,2004
4240,-1.027618,24.4475,2004
4241,-1.026697,24.4481,2004
4242,-1.056605,24.4481,2004
4286,-1.064587,24.4706,2004
4287,-1.064260,24.4719,2004
4288,-1.016339,24.4719,2004
4289,-1.014552,24.4725,2004
4290,-1.057625,24.4725,2004
4291,-1.065522,24.4737,2004
4292,-1.044742,24.4738,2004
4293,-1.028034,24.4744,2004
4294,-1.027155,24.4744,2004
4295,-1.041908,24.4756,2004
4296,-1.067103,24.4756,2004
4297,-1.057400,24.4769,2004
4298,-1.017784,24.4769,2004
4299,-1.016633,24.4775,2004
4300,-1.069156,24.4775,2004
4301,-1.075202,24.4781,2004
4302,-1.037536,24.4781,2004
4303,-1.028520,24.4794,2004
4304,-1.037774,24.4794,2004
4305,-1.055085,24.4813,2004
4306,-1.062179,24.4812,2004
4307,-1.060856,24.4819,2004
4308,-1.022343,24.4819,2004
4309,-1.020912,24.4825,2004
4310,-1.070213,24.4825,2004
4311,-1.074791,24.4837,2004
4312,-1.034693,24.4838,2004
4313,-1.023713,24.4844,2004
4314,-1.049002,24.4844,2004
4358,-1.049296,24.5063,2004
4359,-1.052719,24.5075,2004
4360,-1.083072,24.5075,2004
4361,-1.085298,24.5081,2004
4362,-1.028974,24.5081,2004
4363,-1.036694,24.5094,2004
4364,-1.085518,24.5094,2004
4365,-1.097222,24.5106,2004
4366,-1.054608,24.5106,2004
4367,-1.053248,24.5119,2004
4368,-1.057092,24.5119,2004
4369,-1.060664,24.5125,2004
4370,-1.083709,24.5125,2004
4371,-1.084662,24.5131,2004
4372,-1.030362,24.5131,2004
4373,-1.035043,24.5144,2004
4374,-1.094660,24.5144,2004
4375,-1.095048,24.5156,2004
4376,-1.047015,24.5156,2004
4377,-1.049554,24.5163,2004
4378,-1.061674,24.5162,2004
4379,-1.069058,24.5175,2004
4380,-1.079865,24.5175,2004
4381,-1.080136,24.5181,2004
4382,-1.037938,24.5181,2004
4383,-1.046874,24.5194,2004
4384,-1.095717,24.5194,2004
4385,-1.101688,24.5212,2004
4386,-1.047019,24.5213,2004
4387,-1.052710,24.5219,2004
4405,-1.070433,24.5306,2004
4406,-1.013669,24.5307,2005
4407,-1.021062,24.5319,2005
4408,-1.047907,24.5319,2005
4409,-1.050582,24.5325,2005
4410,-1.042689,24.5325,2005
4411,-1.038691,24.5331,2005
4412,-1.009198,24.5332,2005
4413,-1.022319,24.5344,2005
4414,-1.069563,24.5344,2005
4415,-1.069988,24.5356,2005
4416,-1.007589,24.5357,2005
4417,-1.019991,24.5363,2005
4418,-1.054015,24.5363,2005
4419,-1.059341,24.5375,2005
4420,-1.043030,24.5375,2005
4421,-1.040809,24.5381,2005
4422,-1.014183,24.5382,2005
4477,-1.046290,24.5663,2005
4478,-1.074580,24.5662,2005
4479,-1.079154,24.5675,2005
4480,-1.034697,24.5675,2005
4481,-1.026420,24.5681,2005
4482,-1.059402,24.5681,2005
4483,-1.082217,24.5694,2005
4484,-1.056849,24.5694,2005
4485,-1.047945,24.5706,2005
4486,-1.039336,24.5706,2005
4487,-1.052238,24.5713,2005
4488,-1.082703,24.5712,2005
4489,-1.077919,24.5725,2005
4490,-1.033416,24.5725,2005
4491,-1.032191,24.5731,2005
4492,-1.064419,24.5731,2005
4493,-1.087038,24.5744,2005
4494,-1.054300,24.5744,2005
4495,-1.042062,24.5750,2005
4496,-1.044737,24.5750,2005
4497,-1.057096,24.5763,2005
4498,-1.081239,24.5762,2005
4499,-1.080122,24.5775,2005
4500,-1.035922,24.5775,2005
4501,-1.039243,24.5781,2005
4502,-1.074449,24.5781,2005
4503,-1.090816,24.5794,2005
4504,-1.053790,24.5794,2005
4505,-1.038723,24.5806,2005
4550,-0.955899,24.6026,2005
4551,-0.964873,24.6032,2005
4552,-1.013949,24.6032,2005
4553,-1.017882,24.6044,2005
4554,-0.953187,24.6044,2005
4555,-0.946636,24.6057,2005
4556,-1.005293,24.6057,2005
4557,-1.004592,24.6063,2005
4558,-0.985803,24.6063,2005
4559,-0.977134,24.6075,2005
4560,-0.962848,24.6076,2005
4561,-0.932397,24.6082,2005
4562,-0.973902,24.6082,2005
4563,-0.976119,24.6094,2005
4564,-0.913406,24.6095,2005
4565,-0.902586,24.6101,2005
4566,-0.973196,24.6100,2005
4567,-0.967220,24.6113,2005
4568,-0.941403,24.6113,2005
4569,-0.937143,24.6126,2005
4570,-0.929914,24.6126,2005
4571,-0.933701,24.6132,2005
4572,-0.972238,24.6132,2005
4573,-0.976507,24.6144,2005
4574,-0.914978,24.6145,2005
4575,-0.906668,24.6151,2005
4576,-0.972266,24.6150,2005
4577,-0.974272,24.6163,2005
4578,-0.934884,24.6163,2005
4579,-0.932327,24.6176,2005
4622,-0.960505,24.6382,2006
4623,-0.946794,24.6394,2006
4624,-0.932864,24.6395,2006
4625,-0.932429,24.6407,2006
4626,-0.989469,24.6407,2006
4627,-0.972551,24.6419,2006
4628,-0.935661,24.6419,2006
4629,-0.931274,24.6426,2006
4630,-0.972224,24.6425,2006
4631,-0.973379,24.6432,2006
4632,-0.956189,24.6432,2006
4633,-0.944489,24.6444,2006
4634,-0.938434,24.6444,2006
4635,-0.939229,24.6451,2006
4636,-0.991050,24.6450,2006
4637,-0.972046,24.6463,2006
4638,-0.936170,24.6463,2006
4639,-0.934029,24.6469,2006
4640,-0.977690,24.6469,2006
4641,-0.978766,24.6482,2006
4642,-0.960945,24.6482,2006
4643,-0.942516,24.6494,2006
4644,-0.946121,24.6494,2006
4645,-0.946869,24.6501,2006
4646,-0.984017,24.6500,2006
4647,-0.968754,24.6513,2006
4648,-0.937101,24.6513,2006
4649,-0.938265,24.6519,2006
4650,-0.980837,24.6519,2006
4694,-0.952308,24.6738,2006
4695,-0.957886,24.6751,2006
4696,-0.932705,24.6751,2006
4697,-0.923231,24.6763,2006
4698,-0.919897,24.6763,2006
4699,-0.923788,24.6770,2006
4700,-0.957269,24.6769,2006
4701,-0.958836,24.6782,2006
4702,-0.911985,24.6782,2006
4703,-0.895455,24.6788,2006
4704,-0.960978,24.6788,2006
4705,-0.954884,24.6807,2006
4706,-0.928632,24.6807,2006
4707,-0.918050,24.6820,2006
4708,-0.918569,24.6820,2006
4709,-0.926509,24.6826,2006
4710,-0.958471,24.6826,2006
4711,-0.956138,24.6832,2006
4712,-0.906944,24.6832,2006
4713,-0.895132,24.6845,2006
4714,-0.938008,24.6844,2006
4715,-0.923259,24.6857,2006
4716,-0.882118,24.6857,2006
4717,-0.873566,24.6864,2006
4718,-0.890208,24.6864,2006
4719,-0.888525,24.6870,2006
4720,-0.914889,24.6870,2006
4721,-0.910662,24.6882,2006
4722,-0.869044,24.6882,2006
4723,-0.856792,24.6889,2006
4724,-0.932158,24.6888,2006
4725,-0.928389,24.6907,2006
4726,-0.878714,24.6907,2006
4727,-0.871653,24.6914,2006
4728,-0.895357,24.6913,2006
4729,-0.896656,24.6920,2006
4730,-0.913926,24.6920,2006
4731,-0.906654,24.6932,2006
4732,-0.870578,24.6932,2006
4733,-0.861019,24.6939,2006
4792,-0.898410,24.7232,2006
4793,-0.934314,24.7232,2006
4794,-0.934660,24.7238,2006
4795,-0.872850,24.7239,2006
4796,-0.866509,24.7257,2006
4797,-0.936671,24.7257,2006
4798,-0.927767,24.7263,2006
4799,-0.899331,24.7263,2006
4800,-0.892574,24.7270,2006
4801,-0.897082,24.7270,2006
4802,-0.898391,24.7282,2006
4803,-0.932083,24.7282,2006
4804,-0.928932,24.7288,2006
4805,-0.875286,24.7289,2006
4806,-0.866182,24.7307,2007
4807,-0.934206,24.7307,2007
4808,-0.929231,24.7313,2007
4809,-0.895151,24.7313,2007
4810,-0.891438,24.7320,2007
4811,-0.894992,24.7320,2007
4812,-0.902680,24.7332,2007
4813,-0.925541,24.7332,2007
4814,-0.927374,24.7338,2007
4815,-0.876250,24.7339,2007
4816,-0.871373,24.7351,2007
4817,-0.937110,24.7351,2007
4818,-0.932532,24.7357,2007
4819,-0.895160,24.7357,2007
4820,-0.886266,24.7370,2007
4865,-0.864536,24.7589,2007
4866,-0.858962,24.7607,2007
4867,-0.894838,24.7607,2007
4868,-0.843802,24.7614,2007
4869,-0.804316,24.7614,2007
4870,-0.803774,24.7627,2007
4871,-0.843432,24.7626,2007
4872,-0.846631,24.7633,2007
4873,-0.813187,24.7633,2007
4874,-0.778621,24.7639,2007
4875,-0.785354,24.7639,2007
4876,-0.786299,24.7658,2007
4877,-0.822577,24.7658,2007
4878,-0.807608,24.7664,2007
4879,-0.772481,24.7664,2007
4880,-0.769343,24.7670,2007
4881,-0.812981,24.7670,2007
4882,-0.813884,24.7683,2007
4883,-0.788576,24.7683,2007
4884,-0.780758,24.7689,2007
4885,-0.792916,24.7689,2007
4886,-0.794791,24.7708,2007
4887,-0.811606,24.7708,2007
4888,-0.806706,24.7714,2007
4889,-0.771260,24.7714,2007
4890,-0.770390,24.7720,2007
4891,-0.813781,24.7720,2007
4892,-0.818569,24.7733,2007
4893,-0.784709,24.7733,2007
4937,-0.791199,24.7952,2007
4938,-0.787084,24.7958,2007
4939,-0.794674,24.7958,2007
4940,-0.795525,24.7970,2007
4941,-0.822493,24.7970,2007
4942,-0.818677,24.7976,2007
4943,-0.777101,24.7977,2007
4944,-0.770218,24.7989,2007
4945,-0.832911,24.7989,2007
4946,-0.833271,24.8001,2007
4947,-0.787772,24.8002,2007
4948,-0.785467,24.8014,2007
4949,-0.797526,24.8014,2007
4950,-0.802871,24.8027,2007
4951,-0.820229,24.8026,2007
4952,-0.812986,24.8033,2007
4953,-0.773491,24.8033,2007
4954,-0.763353,24.8039,2007
4955,-0.832308,24.8039,2007
4956,-0.828974,24.8051,2007
4957,-0.777367,24.8052,2007
4958,-0.750026,24.8064,2007
4959,-0.759860,24.8064,2007
4960,-0.760599,24.8071,2007
4961,-0.770241,24.8070,2007
4962,-0.762352,24.8077,2007
4963,-0.727959,24.8077,2007
4964,-0.722310,24.8089,2007
4965,-0.795193,24.8089,2007
4966,-0.785069,24.8102,2007
5009,-0.778981,24.8314,2008
5010,-0.777414,24.8320,2008
5011,-0.752481,24.8321,2008
5012,-0.746210,24.8327,2008
5013,-0.745093,24.8327,2008
5014,-0.746664,24.8339,2008
5015,-0.788525,24.8339,2008
5016,-0.774651,24.8352,2008
5017,-0.718719,24.8352,2008
5018,-0.731550,24.8358,2008
5019,-0.784793,24.8358,2008
5020,-0.780327,24.8370,2008
5021,-0.747080,24.8371,2008
5022,-0.740818,24.8377,2008
5023,-0.750844,24.8377,2008
5024,-0.755665,24.8389,2008
5025,-0.782132,24.8389,2008
5026,-0.769231,24.8402,2008
5027,-0.719233,24.8402,2008
5028,-0.740239,24.8414,2008
5029,-0.781459,24.8414,2008
5030,-0.784073,24.8427,2008
5031,-0.744148,24.8427,2008
5032,-0.735338,24.8433,2008
5033,-0.755894,24.8433,2008
5034,-0.763063,24.8439,2008
5035,-0.781038,24.8439,2008
5036,-0.763096,24.8452,2008
5037,-0.722656,24.8452,2008
5081,-0.734393,24.8671,2008
5082,-0.733421,24.8677,2008
5083,-0.774693,24.8677,2008
5084,-0.781889,24.8689,2008
5085,-0.755034,24.8689,2008
5086,-0.744863,24.8696,2008
5087,-0.752864,24.8696,2008
5088,-0.770423,24.8714,2008
5089,-0.780238,24.8714,2008
5090,-0.773533,24.8720,2008
5091,-0.740458,24.8721,2008
5092,-0.733308,24.8727,2008
5093,-0.780402,24.8727,2008
5094,-0.787370,24.8739,2008
5095,-0.750302,24.8739,2008
5096,-0.738780,24.8746,2008
5097,-0.762030,24.8746,2008
5098,-0.774445,24.8758,2008
5099,-0.783105,24.8758,2008
5100,-0.775113,24.8770,2008
5101,-0.742614,24.8771,2008
5102,-0.739771,24.8777,2008
5103,-0.784709,24.8777,2008
5104,-0.791756,24.8789,2008
5105,-0.747323,24.8789,2008
5106,-0.739949,24.8796,2008
5107,-0.769165,24.8795,2008
5108,-0.786060,24.8814,2008
5109,-0.774384,24.8814,2008
5153,-0.791854,24.9033,2008
5154,-0.792934,24.9039,2008
5155,-0.737653,24.9039,2008
5156,-0.742941,24.9052,2008
5157,-0.794852,24.9052,2008
5158,-0.804082,24.9064,2008
5159,-0.759458,24.9064,2008
5160,-0.760622,24.9071,2008
5161,-0.766640,24.9070,2008
5162,-0.777512,24.9077,2008
5163,-0.795301,24.9077,2008
5164,-0.791952,24.9089,2008
5165,-0.736311,24.9089,2008
5166,-0.748670,24.9096,2008
5167,-0.800963,24.9095,2008
5168,-0.805093,24.9108,2008
5169,-0.756783,24.9108,2008
5170,-0.759070,24.9121,2008
5171,-0.774080,24.9120,2008
5172,-0.780112,24.9127,2008
5173,-0.789713,24.9127,2008
5174,-0.790325,24.9139,2008
5175,-0.741637,24.9139,2008
5176,-0.749890,24.9146,2008
5177,-0.805209,24.9145,2008
5178,-0.805658,24.9158,2008
5179,-0.753453,24.9158,2008
5180,-0.758363,24.9164,2008
5181,-0.780790,24.9164,2008
5225,-0.766397,24.9383,2009
5226,-0.786294,24.9395,2009
5227,-0.805995,24.9395,2009
5228,-0.766247,24.9408,2009
5229,-0.714641,24.9408,2009
5230,-0.718658,24.9421,2009
5231,-0.764545,24.9420,2009
5232,-0.765869,24.9433,2009
5233,-0.726364,24.9433,2009
5234,-0.725775,24.9433,2009
5235,-0.732981,24.9433,2009
5236,-0.751681,24.9452,2009
5237,-0.760276,24.9452,2009
5238,-0.753210,24.9458,2009
5239,-0.715315,24.9458,2009
5240,-0.722834,24.9471,2009
5241,-0.761459,24.9471,2009
5242,-0.768988,24.9477,2009
5243,-0.726949,24.9477,2009
5244,-0.725565,24.9483,2009
5245,-0.739612,24.9483,2009
5246,-0.758864,24.9495,2009
5247,-0.759051,24.9495,2009
5248,-0.747028,24.9508,2009
5249,-0.721613,24.9508,2009
5250,-0.724863,24.9521,2009
5251,-0.765163,24.9520,2009
5252,-0.767828,24.9527,2009
5253,-0.721730,24.9527,2009
5254,-0.723736,24.9533,2009
5298,-0.722941,24.9758,2009
5299,-0.741277,24.9758,2009
5300,-0.754618,24.9764,2009
5301,-0.763928,24.9764,2009
5302,-0.759537,24.9777,2009
5303,-0.723746,24.9777,2009
5304,-0.729876,24.9783,2009
5305,-0.768749,24.9783,2009
5306,-0.784653,24.9795,2009
5307,-0.730816,24.9796,2009
5308,-0.722824,24.9808,2009
5309,-0.755188,24.9808,2009
5310,-0.757989,24.9820,2009
5311,-0.764461,24.9820,2009
5312,-0.758069,24.9827,2009
5313,-0.722651,24.9827,2009
5314,-0.725018,24.9833,2009
5315,-0.775534,24.9833,2009
5316,-0.788076,24.9852,2009
5317,-0.727571,24.9852,2009
5318,-0.719378,24.9858,2009
5319,-0.759177,24.9858,2009
5320,-0.765934,24.9864,2009
5321,-0.761670,24.9864,2009
5322,-0.753748,24.9877,2009
5323,-0.725490,24.9877,2009
5324,-0.727608,24.9883,2009
5325,-0.777035,24.9883,2009
5326,-0.785485,24.9895,2009
5369,-0.736236,25.0102,2009
5370,-0.732495,25.0114,2009
5371,-0.698134,25.0115,2009
5372,-0.695516,25.0127,2009
5373,-0.700397,25.0127,2009
5374,-0.707360,25.0133,2009
5375,-0.727052,25.0133,2009
5376,-0.724929,25.0146,2009
5377,-0.674856,25.0146,2009
5378,-0.670713,25.0152,2009
5379,-0.736077,25.0152,2009
5380,-0.737854,25.0164,2009
5381,-0.690737,25.0165,2009
5382,-0.691036,25.0171,2009
5383,-0.709198,25.0171,2009
5384,-0.715548,25.0183,2009
5385,-0.726626,25.0183,2009
5386,-0.720337,25.0196,2009
5387,-0.683947,25.0196,2009
5388,-0.676404,25.0209,2009
5389,-0.736689,25.0208,2009
5390,-0.731349,25.0221,2009
5391,-0.696077,25.0221,2009
5392,-0.690227,25.0227,2009
5393,-0.710947,25.0227,2009
5394,-0.718069,25.0233,2009
5395,-0.724405,25.0233,2009
5396,-0.714632,25.0246,2009
5397,-0.682768,25.0246,2009
5442,-0.688819,25.0471,2010
5443,-0.734679,25.0471,2010
5444,-0.734351,25.0483,2010
5445,-0.709932,25.0483,2010
5446,-0.695431,25.0496,2010
5447,-0.719458,25.0496,2010
5448,-0.717713,25.0502,2010
5449,-0.732780,25.0502,2010
5450,-0.724148,25.0514,2010
5451,-0.692967,25.0515,2010
5452,-0.696619,25.0521,2010
5453,-0.738013,25.0521,2010
5454,-0.738246,25.0533,2010
5455,-0.704428,25.0533,2010
5456,-0.693668,25.0540,2010
5457,-0.718209,25.0540,2010
5458,-0.725270,25.0552,2010
5459,-0.730068,25.0552,2010
5460,-0.724812,25.0564,2010
5461,-0.696661,25.0565,2010
5462,-0.700903,25.0571,2010
5463,-0.738948,25.0571,2010
5464,-0.742787,25.0583,2010
5465,-0.701090,25.0583,2010
5466,-0.689899,25.0590,2010
5467,-0.730035,25.0589,2010
5468,-0.732186,25.0608,2010
5469,-0.723250,25.0608,2010
5470,-0.715441,25.0615,2010
5514,-0.735857,25.0833,2010
5515,-0.697896,25.0833,2010
5516,-0.696063,25.0840,2010
5517,-0.759154,25.0839,2010
5518,-0.752570,25.0852,2010
5519,-0.705560,25.0852,2010
5520,-0.701524,25.0865,2010
5521,-0.725602,25.0864,2010
5522,-0.729114,25.0871,2010
5523,-0.736577,25.0871,2010
5524,-0.737208,25.0883,2010
5525,-0.698822,25.0883,2010
5526,-0.692831,25.0890,2010
5527,-0.760912,25.0889,2010
5528,-0.756451,25.0902,2010
5529,-0.699102,25.0902,2010
5530,-0.699088,25.0915,2010
5531,-0.731648,25.0914,2010
5532,-0.733159,25.0921,2010
5533,-0.737428,25.0921,2010
5534,-0.731606,25.0933,2010
5535,-0.705672,25.0933,2010
5536,-0.700033,25.0940,2010
5537,-0.762062,25.0939,2010
5538,-0.755960,25.0952,2010
5539,-0.694337,25.0952,2010
5540,-0.701422,25.0965,2010
5541,-0.742048,25.0964,2010
5542,-0.741796,25.0971,2010
5543,-0.730970,25.0971,2010
5586,-0.732528,25.1189,2010
5587,-0.759518,25.1189,2010
5588,-0.744910,25.1202,2010
5589,-0.695146,25.1202,2010
5590,-0.710975,25.1215,2010
5591,-0.757120,25.1214,2010
5592,-0.754379,25.1221,2010
5593,-0.718008,25.1221,2010
5594,-0.712177,25.1233,2010
5595,-0.729334,25.1233,2010
5596,-0.739317,25.1239,2010
5597,-0.756170,25.1239,2010
5598,-0.740860,25.1252,2010
5599,-0.699514,25.1252,2010
5600,-0.709062,25.1265,2010
5601,-0.759233,25.1264,2010
5602,-0.753991,25.1271,2010
5603,-0.717031,25.1271,2010
5604,-0.712570,25.1277,2010
5605,-0.734431,25.1277,2010
5606,-0.735553,25.1289,2011
5607,-0.753682,25.1289,2011
5608,-0.738826,25.1302,2011
5609,-0.704101,25.1302,2011
5610,-0.719490,25.1308,2011
5611,-0.763951,25.1308,2011
5612,-0.755333,25.1321,2011
5613,-0.715623,25.1321,2011
5614,-0.707856,25.1327,2011
5658,-0.716886,25.1552,2011
5659,-0.732331,25.1552,2011
5660,-0.752233,25.1558,2011
5661,-0.758003,25.1558,2011
5662,-0.741337,25.1571,2011
5663,-0.715572,25.1571,2011
5664,-0.716007,25.1577,2011
5665,-0.763241,25.1577,2011
5666,-0.766888,25.1589,2011
5667,-0.724924,25.1590,2011
5668,-0.717105,25.1602,2011
5669,-0.742455,25.1602,2011
5670,-0.759631,25.1614,2011
5671,-0.748819,25.1614,2011
5672,-0.744714,25.1621,2011
5673,-0.718962,25.1621,2011
5674,-0.720888,25.1633,2011
5675,-0.765172,25.1633,2011
5676,-0.769549,25.1639,2011
5677,-0.719935,25.1640,2011
5678,-0.709207,25.1652,2011
5679,-0.746411,25.1652,2011
5680,-0.762366,25.1658,2011
5681,-0.747968,25.1658,2011
5682,-0.742656,25.1671,2011
5683,-0.720159,25.1671,2011
5684,-0.723979,25.1677,2011
5685,-0.764059,25.1677,2011
5686,-0.771288,25.1689,2011
5730,-0.779818,25.1908,2011
5731,-0.726921,25.1908,2011
5732,-0.728328,25.1921,2011
5733,-0.745186,25.1921,2011
5734,-0.748095,25.1927,2011
5735,-0.761094,25.1927,2011
5736,-0.761150,25.1939,2011
5737,-0.716844,25.1940,2011
5738,-0.722577,25.1946,2011
5739,-0.777101,25.1945,2011
5740,-0.780959,25.1958,2011
5741,-0.726495,25.1958,2011
5742,-0.729946,25.1971,2011
5743,-0.751237,25.1971,2011
5744,-0.756872,25.1977,2011
5745,-0.756876,25.1977,2011
5746,-0.754973,25.1983,2011
5747,-0.722076,25.1983,2011
5748,-0.731541,25.2002,2011
5749,-0.775001,25.2002,2011
5750,-0.777741,25.2014,2011
5751,-0.727257,25.2014,2011
5752,-0.728095,25.2021,2011
5753,-0.757704,25.2021,2011
5754,-0.763124,25.2027,2011
5755,-0.755137,25.2027,2011
5756,-0.754725,25.2039,2011
5757,-0.725018,25.2040,2011
5758,-0.736970,25.2052,2011
5802,-0.683124,25.2271,2011
5803,-0.724587,25.2271,2011
5804,-0.732107,25.2277,2011
5805,-0.691171,25.2277,2011
5806,-0.690418,25.2283,2012
5807,-0.698429,25.2283,2012
5808,-0.719673,25.2296,2012
5809,-0.714753,25.2296,2012
5810,-0.712018,25.2308,2012
5811,-0.677419,25.2309,2012
5812,-0.686617,25.2321,2012
5813,-0.728235,25.2321,2012
5814,-0.729502,25.2327,2012
5815,-0.687042,25.2327,2012
5816,-0.690007,25.2340,2012
5817,-0.699748,25.2340,2012
5818,-0.721824,25.2346,2012
5819,-0.716423,25.2346,2012
5820,-0.701309,25.2358,2012
5821,-0.676689,25.2359,2012
5822,-0.691134,25.2365,2012
5823,-0.724615,25.2365,2012
5824,-0.727688,25.2377,2012
5825,-0.682207,25.2377,2012
5826,-0.683582,25.2384,2012
5827,-0.709151,25.2383,2012
5828,-0.728137,25.2396,2012
5829,-0.707688,25.2396,2012
5830,-0.696250,25.2408,2012
5831,-0.690741,25.2408,2012
5874,-0.566724,25.2628,2012
5875,-0.527426,25.2628,2012
5876,-0.535389,25.2641,2012
5877,-0.583605,25.2640,2012
5878,-0.595600,25.2640,2012
5879,-0.534552,25.2647,2012
5880,-0.528511,25.2647,2012
5881,-0.565794,25.2659,2012
5882,-0.572556,25.2659,2012
5883,-0.567926,25.2665,2012
5884,-0.564307,25.2678,2012
5885,-0.534389,25.2678,2012
5886,-0.536409,25.2684,2012
5887,-0.588567,25.2684,2012
5888,-0.595502,25.2696,2012
5889,-0.534033,25.2697,2012
5890,-0.520636,25.2709,2012
5891,-0.572392,25.2709,2012
5892,-0.576563,25.2715,2012
5893,-0.564648,25.2715,2012
5894,-0.560636,25.2728,2012
5895,-0.536231,25.2728,2012
5896,-0.541515,25.2734,2012
5897,-0.590143,25.2734,2012
5898,-0.597105,25.2734,2012
5899,-0.531532,25.2747,2012
5900,-0.521197,25.2747,2012
5901,-0.576624,25.2759,2012
5902,-0.581955,25.2759,2012
5946,-0.563591,25.2978,2012
5947,-0.577784,25.2984,2012
5948,-0.573617,25.2984,2012
5949,-0.535356,25.2997,2012
5950,-0.531878,25.2997,2012
5951,-0.596030,25.3009,2012
5952,-0.585939,25.3009,2012
5953,-0.549329,25.3016,2012
5954,-0.544695,25.3016,2012
5955,-0.566860,25.3028,2012
5956,-0.574599,25.3028,2012
5957,-0.582001,25.3034,2012
5958,-0.569394,25.3034,2012
5959,-0.538681,25.3047,2012
5960,-0.533860,25.3047,2012
5961,-0.601506,25.3059,2012
5962,-0.539032,25.3059,2012
5963,-0.543259,25.3066,2012
5964,-0.562151,25.3065,2012
5965,-0.570760,25.3078,2012
5966,-0.573510,25.3078,2012
5967,-0.574216,25.3084,2012
5968,-0.531129,25.3084,2012
5969,-0.542867,25.3097,2012
5970,-0.588960,25.3097,2012
5971,-0.597643,25.3109,2012
5972,-0.536577,25.3109,2012
5973,-0.543694,25.3116,2012
5974,-0.570101,25.3115,2012
6018,-0.550189,25.3334,2013
6019,-0.574735,25.3347,2013
6020,-0.584980,25.3347,2013
6021,-0.580463,25.3353,2013
6022,-0.525672,25.3353,2013
6023,-0.499144,25.3366,2013
6024,-0.535983,25.3366,2013
6025,-0.538779,25.3372,2013
6026,-0.499813,25.3372,2013
6027,-0.497218,25.3378,2013
6028,-0.507795,25.3378,2013
6029,-0.528590,25.3397,2013
6030,-0.526757,25.3397,2013
6031,-0.523119,25.3409,2013
6032,-0.489423,25.3410,2013
6033,-0.496203,25.3416,2013
6034,-0.542193,25.3416,2013
6035,-0.542086,25.3428,2013
6036,-0.495188,25.3428,2013
6037,-0.497639,25.3435,2013
6038,-0.514094,25.3434,2013
6039,-0.533009,25.3447,2013
6040,-0.520510,25.3447,2013
6041,-0.519893,25.3453,2013
6042,-0.488525,25.3453,2013
6043,-0.502979,25.3466,2013
6044,-0.537615,25.3466,2013
6045,-0.539799,25.3478,2013
6046,-0.491059,25.3478,2013
6047,-0.493047,25.3478,2013
6091,-0.483615,25.3703,2013
6092,-0.515324,25.3703,2013
6093,-0.516081,25.3716,2013
6094,-0.486285,25.3716,2013
6095,-0.477157,25.3728,2013
6096,-0.439514,25.3729,2013
6097,-0.437582,25.3729,2013
6098,-0.485981,25.3728,2013
6099,-0.500037,25.3747,2013
6100,-0.442572,25.3747,2013
6101,-0.433505,25.3754,2013
6102,-0.472018,25.3753,2013
6103,-0.480921,25.3766,2013
6104,-0.475445,25.3766,2013
6105,-0.470564,25.3772,2013
6106,-0.445130,25.3772,2013
6107,-0.447538,25.3779,2013
6108,-0.490708,25.3778,2013
6109,-0.504424,25.3797,2013
6110,-0.446893,25.3797,2013
6111,-0.430498,25.3804,2013
6112,-0.482988,25.3803,2013
6113,-0.476507,25.3816,2013
6114,-0.472537,25.3816,2013
6115,-0.466991,25.3829,2013
6116,-0.442366,25.3829,2013
6117,-0.445845,25.3835,2013
6118,-0.494304,25.3835,2013
6119,-0.499369,25.3847,2013
6163,-0.495104,25.4066,2013
6164,-0.455488,25.4066,2013
6165,-0.448052,25.4072,2013
6166,-0.465901,25.4072,2013
6167,-0.472200,25.4078,2013
6168,-0.489577,25.4078,2013
6169,-0.485298,25.4091,2013
6170,-0.443849,25.4091,2013
6171,-0.438611,25.4104,2013
6172,-0.505682,25.4103,2013
6173,-0.491845,25.4116,2013
6174,-0.453121,25.4116,2013
6175,-0.448983,25.4122,2013
6176,-0.468408,25.4122,2013
6177,-0.476343,25.4135,2013
6178,-0.488314,25.4135,2013
6179,-0.481314,25.4141,2013
6180,-0.445859,25.4141,2013
6181,-0.441146,25.4154,2013
6182,-0.503465,25.4153,2013
6183,-0.493940,25.4166,2013
6184,-0.450685,25.4166,2013
6185,-0.446224,25.4172,2013
6186,-0.472822,25.4172,2013
6187,-0.482011,25.4178,2013
6188,-0.481193,25.4178,2013
6189,-0.471990,25.4191,2013
6190,-0.450629,25.4191,2013
6191,-0.446247,25.4204,2013
6235,-0.393776,25.4423,2014
6236,-0.437232,25.4422,2014
6237,-0.443545,25.4435,2014
6238,-0.405565,25.4435,2014
6239,-0.393991,25.4441,2014
6240,-0.425177,25.4441,2014
6241,-0.424681,25.4454,2014
6242,-0.435492,25.4454,2014
6243,-0.417854,25.4466,2014
6244,-0.396264,25.4466,2014
6245,-0.398195,25.4473,2014
6246,-0.440893,25.4472,2014
6247,-0.438789,25.4479,2014
6248,-0.402006,25.4479,2014
6249,-0.387604,25.4491,2014
6250,-0.432125,25.4491,2014
6251,-0.428590,25.4504,2014
6252,-0.426271,25.4504,2014
6253,-0.411237,25.4516,2014
6254,-0.398485,25.4516,2014
6255,-0.402857,25.4523,2014
6256,-0.441740,25.4522,2014
6257,-0.442048,25.4535,2014
6258,-0.398737,25.4535,2014
6259,-0.390105,25.4541,2014
6260,-0.431031,25.4541,2014
6261,-0.438953,25.4554,2014
6262,-0.417849,25.4554,2014
6263,-0.409217,25.4560,2014
6281,-0.444484,25.4654,2014
6282,-0.413921,25.4654,2014
6283,-0.403245,25.4666,2014
6284,-0.410802,25.4666,2014
6285,-0.411980,25.4673,2014
6286,-0.441501,25.4672,2014
6287,-0.439378,25.4679,2014
6288,-0.396063,25.4679,2014
6289,-0.384068,25.4691,2014
6290,-0.452485,25.4691,2014
6291,-0.449951,25.4704,2014
6292,-0.404751,25.4704,2014
6293,-0.396390,25.4716,2014
6294,-0.416792,25.4716,2014
6295,-0.420168,25.4722,2014
6296,-0.436853,25.4722,2014
6297,-0.433416,25.4735,2014
6298,-0.393594,25.4735,2014
6353,-0.394005,25.5016,2014
6354,-0.437723,25.5016,2014
6355,-0.444531,25.5022,2014
6356,-0.415749,25.5023,2014
6357,-0.407370,25.5035,2014
6358,-0.411597,25.5035,2014
6359,-0.412560,25.5041,2014
6360,-0.452219,25.5041,2014
6361,-0.440355,25.5054,2014
6362,-0.381048,25.5054,2014
6363,-0.391835,25.5060,2014
6364,-0.442207,25.5060,2014
6365,-0.445167,25.5072,2014
6366,-0.412055,25.5073,2014
6367,-0.404181,25.5079,2014
6368,-0.412242,25.5079,2014
6369,-0.417774,25.5085,2014
6370,-0.450896,25.5085,2014
6371,-0.436470,25.5104,2014
6372,-0.379832,25.5104,2014
6373,-0.396287,25.5110,2014
6374,-0.442516,25.5110,2014
6375,-0.444541,25.5122,2014
6376,-0.408492,25.5123,2014
6377,-0.404251,25.5129,2014
6378,-0.419364,25.5129,2014
6379,-0.418985,25.5141,2014
6380,-0.446458,25.5141,2014
6381,-0.426818,25.5154,2014
6425,-0.430680,25.5372,2015
6426,-0.393042,25.5373,2015
6427,-0.391461,25.5379,2015
6428,-0.423432,25.5379,2015
6429,-0.381917,25.5391,2015
6430,-0.344714,25.5392,2015
6431,-0.291695,25.5405,2015
6432,-0.298312,25.5404,2015
6433,-0.306149,25.5417,2015
6434,-0.314968,25.5417,2015
6435,-0.316853,25.5423,2015
6436,-0.272663,25.5423,2015
6437,-0.268492,25.5430,2015
6438,-0.276914,25.5430,2015
6439,-0.292822,25.5442,2015
6440,-0.239588,25.5442,2015
6441,-0.223339,25.5455,2015
6442,-0.258200,25.5455,2015
6443,-0.276357,25.5461,2015
6444,-0.264681,25.5461,2015
6445,-0.253926,25.5474,2015
6446,-0.214071,25.5474,2015
6447,-0.218831,25.5480,2015
6448,-0.269324,25.5480,2015
6449,-0.274805,25.5492,2015
6450,-0.219916,25.5492,2015
6451,-0.208473,25.5505,2015
6452,-0.242011,25.5505,2015
6453,-0.256348,25.5511,2015
6454,-0.255815,25.5511,2015
6497,-0.132434,25.5730,2015
6498,-0.162993,25.5730,2015
6499,-0.161118,25.5743,2015
6500,-0.114889,25.5743,2015
6501,-0.113271,25.5756,2015
6502,-0.164059,25.5755,2015
6503,-0.170236,25.5761,2015
6504,-0.104143,25.5762,2015
6505,-0.092902,25.5774,2015
6506,-0.091555,25.5774,2015
6507,-0.099850,25.5781,2015
6508,-0.122474,25.5780,2015
6509,-0.125284,25.5793,2015
6510,-0.073402,25.5793,2015
6511,-0.078242,25.5806,2015
6512,-0.128076,25.5806,2015
6513,-0.134019,25.5818,2015
6514,-0.085654,25.5818,2015
6515,-0.087744,25.5824,2015
6516,-0.097176,25.5824,2015
6517,-0.106439,25.5831,2015
6518,-0.123755,25.5830,2015
6519,-0.118462,25.5843,2015
6520,-0.072401,25.5843,2015
6521,-0.078649,25.5856,2015
6522,-0.133902,25.5855,2015
6523,-0.140402,25.5862,2015
6524,-0.083479,25.5862,2015
6525,-0.086682,25.5874,2015
6569,-0.041548,25.6094,2015
6570,-0.031274,25.6094,2015
6571,-0.051242,25.6100,2015
6572,-0.065766,25.6100,2015
6573,-0.065251,25.6112,2015
6574,-0.027384,25.6112,2015
6575,-0.035034,25.6125,2015
6576,-0.065841,25.6125,2015
6577,-0.067828,25.6131,2015
6578,-0.037989,25.6131,2015
6579,-0.033056,25.6144,2015
6580,-0.037942,25.6143,2015
6581,-0.059729,25.6150,2015
6582,-0.067589,25.6150,2015
6583,-0.059673,25.6162,2015
6584,-0.026565,25.6162,2015
6585,-0.034159,25.6175,2015
6586,-0.068978,25.6175,2015
6587,-0.071340,25.6181,2015
6588,-0.035693,25.6181,2015
6589,-0.034117,25.6194,2015
6590,-0.045382,25.6193,2015
6591,-0.063353,25.6200,2015
6592,-0.059453,25.6200,2015
6593,-0.056357,25.6218,2015
6594,-0.038728,25.6219,2015
6595,-0.042114,25.6225,2015
6596,-0.073547,25.6225,2015
6597,-0.072892,25.6231,2015
6598,-0.032457,25.6231,2015
6599,-0.027108,25.6244,2015
6600,-0.048066,25.6243,2015
6601,-0.068352,25.6256,2015
6602,-0.052074,25.6256,2015
6603,-0.046098,25.6262,2015
6604,-0.027739,25.6262,2015
6605,-0.038186,25.6275,2015
6606,-0.091513,25.6274,2016
6607,-0.076413,25.6281,2016
6608,-0.030680,25.6281,2016
6609,-0.029642,25.6294,2016
6668,-0.029853,25.6581,2016
6669,-0.035661,25.6587,2016
6670,-0.070489,25.6587,2016
6671,-0.079635,25.6600,2016
6672,-0.026944,25.6600,2016
6673,-0.018069,25.6600,2016
6674,-0.069483,25.6618,2016
6675,-0.058391,25.6618,2016
6676,-0.054262,25.6625,2016
6677,-0.050470,25.6631,2016
6678,-0.028782,25.6631,2016
6679,-0.033411,25.6644,2016
6680,-0.074679,25.6643,2016
6681,-0.078532,25.6656,2016
6682,-0.019532,25.6656,2016
6683,-0.016404,25.6662,2016
6684,-0.066589,25.6662,2016
6685,-0.066565,25.6668,2016
6686,-0.052270,25.6668,2016
6687,-0.041548,25.6681,2016
6688,-0.028263,25.6681,2016
6689,-0.040491,25.6687,2016
6690,-0.075006,25.6687,2016
6691,-0.075885,25.6700,2016
6692,-0.019967,25.6700,2016
6693,-0.013210,25.6700,2016
6694,-0.076413,25.6712,2016
6695,-0.069020,25.6725,2016
6696,-0.047622,25.6725,2016
6740,-0.062441,25.6937,2016
6741,-0.057639,25.6950,2016
6742,-0.024480,25.6950,2016
6743,-0.026444,25.6962,2016
6744,-0.078471,25.6962,2016
6745,-0.076353,25.6968,2016
6746,-0.033467,25.6969,2016
6747,-0.031513,25.6969,2016
6748,-0.029207,25.6981,2016
6749,-0.061702,25.6981,2016
6750,-0.066528,25.6987,2016
6751,-0.047201,25.6987,2016
6752,-0.040748,25.7000,2016
6753,-0.031943,25.7000,2016
6754,-0.050811,25.7012,2016
6755,-0.064456,25.7025,2016
6756,-0.066383,25.7025,2016
6757,-0.032036,25.7031,2016
6758,-0.023834,25.7031,2016
6759,-0.063512,25.7037,2016
6760,-0.066696,25.7037,2016
6761,-0.040108,25.7056,2016
6762,-0.029034,25.7056,2016
6763,-0.034473,25.7062,2016
6764,-0.046846,25.7062,2016
6765,-0.061819,25.7068,2016
6766,-0.059939,25.7068,2016
6767,-0.025864,25.7069,2016
6768,-0.026738,25.7081,2016
6812,-0.020912,25.7300,2017
6813,-0.059238,25.7300,2017
6814,-0.077311,25.7312,2017
6815,-0.044499,25.7312,2017
6816,-0.042170,25.7325,2017
6817,-0.033594,25.7325,2017
6818,-0.035773,25.7331,2017
6819,-0.070587,25.7331,2017
6820,-0.069993,25.7337,2017
6821,-0.021590,25.7337,2017
6822,-0.019154,25.7350,2017
6823,-0.065700,25.7350,2017
6824,-0.073126,25.7362,2017
6825,-0.038667,25.7362,2017
6826,-0.039939,25.7369,2017
6827,-0.035749,25.7369,2017
6828,-0.044802,25.7381,2017
6829,-0.069965,25.7381,2017
6830,-0.064714,25.7387,2017
6831,-0.017367,25.7387,2017
6832,-0.023657,25.7400,2017
6833,-0.068637,25.7400,2017
6834,-0.081333,25.7412,2017
6835,-0.038303,25.7412,2017
6836,-0.036301,25.7425,2017
6837,-0.038186,25.7425,2017
6838,-0.044667,25.7431,2017
6839,-0.065658,25.7431,2017
6840,-0.069394,25.7437,2017
6885,0.032209,25.7663,2017
6886,0.024297,25.7675,2017
6887,-0.009783,25.7675,2017
6888,-0.023203,25.7681,2017
6889,-0.005588,25.7681,2017
6890,-0.001323,25.7688,2017
6891,0.019434,25.7688,2017
6892,0.009189,25.7700,2017
6893,-0.024910,25.7700,2017
6894,-0.034393,25.7712,2017
6895,0.036554,25.7713,2017
6896,0.025013,25.7725,2017
6897,-0.011213,25.7725,2017
6898,-0.025971,25.7731,2017
6899,0.006832,25.7731,2017
6900,0.000243,25.7738,2017
6901,0.023142,25.7738,2017
6902,0.001202,25.7750,2017
6903,-0.030802,25.7750,2017
6904,-0.011036,25.7756,2017
6905,0.031793,25.7756,2017
6906,0.023222,25.7769,2017
6907,-0.022885,25.7769,2017
6908,-0.026481,25.7781,2017
6909,0.014463,25.7781,2017
6910,0.006294,25.7788,2017
6911,0.009778,25.7788,2017
6912,-0.010082,25.7800,2017
6913,-0.013177,25.7800,2017
6914,-0.010708,25.7812,2017
6957,-0.029385,25.8025,2017
6958,-0.025873,25.8031,2017
6959,0.031298,25.8031,2017
6960,0.029263,25.8038,2017
6961,-0.004335,25.8037,2017
6962,-0.039088,25.8050,2017
6963,0.007674,25.8050,2017
6964,0.014309,25.8063,2017
6965,0.011349,25.8063,2017
6966,0.007978,25.8069,2017
6967,-0.015006,25.8069,2017
6968,-0.029988,25.8075,2017
6969,0.031541,25.8075,2017
6970,0.022399,25.8088,2017
6971,-0.008983,25.8087,2017
6972,-0.026776,25.8100,2017
6973,0.005728,25.8100,2017
6974,0.019930,25.8113,2017
6975,0.012401,25.8113,2017
6976,-0.006776,25.8119,2017
6977,-0.010475,25.8119,2017
6978,-0.010699,25.8125,2017
6979,0.029231,25.8125,2017
6980,0.030994,25.8138,2017
6981,-0.023881,25.8137,2017
6982,-0.022619,25.8150,2017
6983,0.013355,25.8150,2017
6984,0.021660,25.8156,2017
6985,0.007828,25.8156,2017
7029,0.021927,25.8375,2018
7030,0.007173,25.8388,2018
7031,-0.015300,25.8387,2018
7032,-0.020987,25.8394,2018
7033,0.029048,25.8394,2018
7034,0.036512,25.8413,2018
7035,-0.024470,25.8412,2018
7036,-0.010774,25.8425,2018
7037,0.001225,25.8425,2018
7038,0.015834,25.8431,2018
7039,0.012948,25.8431,2018
7040,0.005682,25.8438,2018
7041,-0.023811,25.8437,2018
7042,-0.028310,25.8444,2018
7043,0.030947,25.8444,2018
7044,0.041389,25.8463,2018
7045,-0.016437,25.8462,2018
7046,-0.031101,25.8469,2018
7047,0.011700,25.8469,2018
7048,0.012663,25.8475,2018
7049,0.020987,25.8475,2018
7050,0.003189,25.8488,2018
7051,-0.015445,25.8487,2018
7052,-0.016820,25.8494,2018
7053,0.032093,25.8494,2018
7054,0.033313,25.8513,2018
7055,-0.018130,25.8512,2018
7056,-0.029675,25.8519,2018
7057,0.016245,25.8519,2018
7101,-0.010297,25.8737,2018
7102,0.011265,25.8744,2018
7103,0.012420,25.8744,2018
7104,0.017676,25.8756,2018
7105,-0.014669,25.8756,2018
7106,-0.026271,25.8769,2018
7107,0.027594,25.8769,2018
7108,0.026004,25.8775,2018
7109,-0.011083,25.8775,2018
7110,-0.013238,25.8787,2018
7111,0.003619,25.8788,2018
7112,0.010694,25.8794,2018
7113,0.008370,25.8794,2018
7114,0.005406,25.8813,2018
7115,-0.012224,25.8812,2018
7116,-0.013126,25.8819,2018
7117,0.029011,25.8819,2018
7118,0.026093,25.8831,2018
7119,-0.015427,25.8831,2018
7120,-0.010563,25.8837,2018
7121,0.013229,25.8838,2018
7122,0.017671,25.8844,2018
7123,0.011583,25.8844,2018
7124,0.000753,25.8863,2018
7125,-0.011480,25.8862,2018
7126,-0.008113,25.8869,2018
7127,0.027187,25.8869,2018
7128,0.025593,25.8875,2018
7129,-0.014421,25.8875,2018
7173,-0.032878,25.9094,2018
7174,-0.016890,25.9112,2018
7175,0.005495,25.9113,2018
7176,0.012317,25.9119,2018
7177,0.008249,25.9119,2018
7178,0.010372,25.9131,2018
7179,-0.015328,25.9131,2018
7180,-0.019935,25.9137,2018
7181,0.024152,25.9138,2018
7182,0.037035,25.9144,2018
7183,-0.039780,25.9144,2018
7184,-0.032775,25.9156,2018
7185,0.018602,25.9156,2018
7186,0.019850,25.9163,2018
7187,0.009553,25.9163,2018
7188,0.009624,25.9175,2018
7189,-0.023367,25.9175,2018
7190,-0.007856,25.9181,2018
7191,0.025911,25.9181,2018
7192,0.036147,25.9194,2018
7193,-0.040065,25.9194,2018
7194,-0.021029,25.9212,2018
7195,0.018214,25.9213,2018
7196,0.022614,25.9219,2018
7197,0.004382,25.9219,2018
7198,-0.008342,25.9231,2018
7199,-0.010442,25.9231,2018
7200,-0.012691,25.9237,2018
7201,0.027332,25.9238,2018
7202,0.035039,25.9244,2018
7245,0.041001,25.9456,2019
7246,0.038485,25.9469,2019
7247,-0.014220,25.9469,2019
7248,-0.029451,25.9475,2019
7249,0.006257,25.9475,2019
7250,0.002787,25.9481,2019
7251,0.013439,25.9481,2019
7252,0.012163,25.9494,2019
7253,-0.027594,25.9494,2019
7254,-0.013032,25.9506,2019
7255,0.044293,25.9507,2019
7256,0.037475,25.9519,2019
7257,-0.029348,25.9519,2019
7258,-0.015749,25.9525,2019
7259,-0.000168,25.9525,2019
7260,0.018106,25.9531,2019
7261,0.004648,25.9531,2019
7262,0.012883,25.9544,2019
7263,-0.032013,25.9544,2019
7264,-0.021856,25.9556,2019
7265,0.037685,25.9556,2019
7266,0.035155,25.9563,2019
7267,-0.018607,25.9562,2019
7268,-0.028225,25.9575,2019
7269,0.019621,25.9575,2019
7270,0.019172,25.9581,2019
7271,0.007468,25.9581,2019
7272,-0.003998,25.9594,2019
7273,-0.011443,25.9594,2019
7318,-0.019098,25.9825,2019
7319,0.024190,25.9825,2019
7320,0.031162,25.9838,2019
7321,-0.021889,25.9837,2019
7322,-0.010895,25.9844,2019
7323,0.004241,25.9844,2019
7324,0.016184,25.9856,2019
7325,0.021730,25.9856,2019
7326,-0.003792,25.9869,2019
7327,-0.009306,25.9869,2019
7328,-0.016226,25.9875,2019
7329,0.024358,25.9875,2019
7330,0.030839,25.9881,2019
7331,-0.015328,25.9881,2019
7332,-0.026640,25.9894,2019
7333,0.015712,25.9894,2019
7334,0.017886,25.9906,2019
7335,0.016507,25.9906,2019
7336,-0.015946,25.9919,2019
7337,-0.010933,25.9919,2019
7338,-0.017643,25.9925,2019
7339,0.029932,25.9925,2019
7340,0.027893,25.9931,2019
7341,-0.009072,25.9931,2019
7342,-0.027491,25.9944,2019
7343,0.020982,25.9944,2019
7344,0.022361,25.9950,2019
7345,0.008155,25.9950,2019
7346,-0.015936,25.9962,2019
7391,-0.031775,26.0181,2019
7392,-0.015969,26.0194,2019
7393,0.036708,26.0194,2019
7394,0.031863,26.0200,2019
7395,-0.027987,26.0200,2019
7396,-0.025588,26.0219,2019
7397,0.016385,26.0219,2019
7398,0.013098,26.0225,2019
7399,0.004587,26.0225,2019
7400,0.005265,26.0231,2019
7401,-0.025331,26.0231,2019
7402,-0.020968,26.0244,2019
7403,0.032658,26.0244,2019
7404,0.037278,26.0256,2019
7405,-0.033201,26.0256,2019
7406,-0.025957,26.0269,2020
7407,0.018906,26.0269,2020
7408,0.021604,26.0275,2020
7409,0.007739,26.0275,2020
7410,0.007935,26.0281,2020
7411,-0.017961,26.0281,2020
7412,-0.017877,26.0294,2020
7413,0.037545,26.0294,2020
7414,0.027173,26.0300,2020
7415,-0.015006,26.0300,2020
7416,-0.021707,26.0319,2020
7417,0.025794,26.0319,2020
7418,0.019373,26.0325,2020
7419,-0.004050,26.0325,2020
7463,0.018405,26.0538,2020
7464,0.004512,26.0550,2020
7465,-0.013570,26.0550,2020
7466,-0.012574,26.0562,2020
7467,0.037096,26.0563,2020
7468,0.019355,26.0569,2020
7469,-0.021688,26.0569,2020
7470,-0.012093,26.0581,2020
7471,0.008861,26.0581,2020
7472,0.010447,26.0588,2020
7473,0.018910,26.0588,2020
7474,-0.004176,26.0600,2020
7475,-0.027225,26.0600,2020
7476,-0.006509,26.0612,2020
7477,0.027365,26.0613,2020
7478,0.028576,26.0625,2020
7479,-0.027674,26.0625,2020
7480,-0.015950,26.0631,2020
7481,0.014515,26.0631,2020
7482,0.015235,26.0644,2020
7483,0.012602,26.0644,2020
7484,-0.015511,26.0650,2020
7485,-0.004185,26.0650,2020
7486,-0.004676,26.0662,2020
7487,0.033220,26.0663,2020
7488,0.017419,26.0669,2020
7489,-0.019673,26.0669,2020
7490,-0.014421,26.0681,2020
7491,0.013472,26.0681,2020
7492,0.023269,26.0688,2020
7535,0.011807,26.0900,2020
7536,0.018387,26.0913,2020
7537,-0.000393,26.0912,2020
7538,0.003217,26.0919,2020
7539,-0.008744,26.0919,2020
7540,-0.023797,26.0931,2020
7541,0.027482,26.0931,2020
7542,0.025658,26.0938,2020
7543,-0.011326,26.0937,2020
7544,-0.038073,26.0950,2020
7545,0.009039,26.0950,2020
7546,0.028137,26.0963,2020
7547,0.000379,26.0962,2020
7548,-0.000720,26.0969,2020
7549,-0.015155,26.0969,2020
7550,-0.002268,26.0981,2020
7551,0.026874,26.0981,2020
7552,0.022361,26.0988,2020
7553,-0.023512,26.0987,2020
7554,-0.021655,26.1000,2020
7555,0.013907,26.1000,2020
7556,0.032691,26.1013,2020
7557,-0.000267,26.1013,2020
7558,-0.000982,26.1025,2020
7559,-0.010718,26.1025,2020
7560,0.001351,26.1031,2020
7561,0.030461,26.1031,2020
7562,0.028183,26.1038,2020
7563,-0.015913,26.1037,2020
7607,-0.034052,26.1262,2021
7608,-0.030147,26.1269,2021
7609,0.006617,26.1269,2021
7610,0.010292,26.1281,2021
7611,0.006794,26.1281,2021
7612,0.005827,26.1288,2021
7613,-0.014781,26.1287,2021
7614,-0.030185,26.1300,2021
7615,0.029918,26.1300,2021
7616,0.040809,26.1306,2021
7617,-0.018995,26.1306,2021
7618,-0.018597,26.1319,2021
7619,0.014342,26.1319,2021
7620,0.019168,26.1331,2021
7621,0.007973,26.1331,2021
7622,0.002282,26.1338,2021
7623,-0.025443,26.1337,2021
7624,-0.003484,26.1350,2021
7625,0.036081,26.1350,2021
7626,0.040486,26.1357,2021
7627,-0.040884,26.1356,2021
7628,-0.030732,26.1369,2021
7629,0.018013,26.1369,2021
7630,0.022216,26.1375,2021
7631,-0.003423,26.1375,2021
7632,-0.000594,26.1388,2021
7633,-0.024115,26.1387,2021
7634,-0.006182,26.1400,2021
7635,0.023844,26.1400,2021
7679,0.026813,26.1619,2021
7680,0.028483,26.1631,2021
7681,-0.021295,26.1631,2021
7682,-0.021842,26.1637,2021
7683,0.004793,26.1638,2021
7684,0.016198,26.1650,2021
7685,0.025976,26.1650,2021
7686,0.006313,26.1656,2021
7687,-0.019430,26.1656,2021
7688,-0.002333,26.1669,2021
7689,-0.014085,26.1669,2021
7690,0.028992,26.1675,2021
7691,0.020257,26.1675,2021
7692,-0.012789,26.1687,2021
7693,-0.023194,26.1687,2021
7694,0.025672,26.1694,2021
7695,0.032256,26.1694,2021
7696,0.000318,26.1706,2021
7697,-0.011789,26.1706,2021
7698,-0.003984,26.1719,2021
7699,-0.003456,26.1719,2021
7700,0.019182,26.1725,2021
7701,0.020500,26.1725,2021
7702,-0.014477,26.1737,2021
7703,-0.034276,26.1737,2021
7704,0.029815,26.1744,2021
7705,0.032121,26.1744,2021
7706,-0.004031,26.1756,2021
7707,-0.015427,26.1756,2021
7751,0.001379,26.1975,2021
7752,-0.014753,26.1981,2021
7753,-0.014646,26.1981,2021
7754,0.029408,26.1994,2021
7755,0.023306,26.1994,2021
7756,-0.023671,26.2006,2021
7757,-0.037985,26.2006,2021
7758,0.022731,26.2019,2021
7759,0.019116,26.2019,2021
7760,-0.002852,26.2025,2021
7761,-0.001155,26.2025,2021
7762,-0.010690,26.2037,2021
7763,-0.002909,26.2037,2021
7764,0.034435,26.2044,2021
7765,0.024657,26.2044,2021
7766,-0.020154,26.2056,2021
7767,-0.027229,26.2056,2021
7768,0.026201,26.2069,2021
7769,0.025350,26.2069,2021
7770,-0.002960,26.2075,2021
7771,-0.003502,26.2075,2021
7772,-0.004129,26.2081,2021
7773,-0.008829,26.2081,2021
7774,0.030241,26.2094,2021
7775,0.013131,26.2094,2021
7776,-0.021520,26.2106,2021
7777,-0.022408,26.2106,2021
7778,0.031405,26.2119,2021
7779,0.024269,26.2119,2021
7780,-0.005279,26.2125,2021
7823,0.017232,26.2338,2022
7824,0.012032,26.2344,2022
7825,-0.006509,26.2344,2022
7826,-0.016512,26.2356,2022
7827,-0.003002,26.2356,2022
7828,0.027332,26.2363,2022
7829,0.023227,26.2363,2022
7830,-0.030381,26.2375,2022
7831,-0.014992,26.2375,2022
7832,0.019570,26.2381,2022
7833,0.020444,26.2381,2022
7834,-0.003166,26.2388,2022
7835,-0.020528,26.2387,2022
7836,-0.003339,26.2406,2022
7837,-0.007454,26.2406,2022
7838,0.022460,26.2419,2022
7839,0.012027,26.2419,2022
7840,-0.016268,26.2425,2022
7841,-0.030470,26.2425,2022
7842,0.028412,26.2438,2022
7843,0.022240,26.2438,2022
7844,-0.001323,26.2444,2022
7845,-0.016470,26.2444,2022
7846,0.000482,26.2456,2022
7847,0.012284,26.2456,2022
7848,0.026939,26.2469,2022
7849,0.013004,26.2469,2022
7850,-0.023386,26.2475,2022
7851,-0.014080,26.2475,2022
7895,-0.043110,26.2687,2022
7896,0.017414,26.2706,2022
7897,0.032584,26.2706,2022
7898,-0.005457,26.2713,2022
7899,-0.021814,26.2712,2022
7900,-0.005579,26.2725,2022
7901,-0.002095,26.2725,2022
7902,0.030877,26.2731,2022
7903,0.022408,26.2731,2022
7904,-0.029058,26.2737,2022
7905,-0.022726,26.2737,2022
7906,0.025817,26.2756,2022
7907,0.038592,26.2756,2022
7908,-0.007356,26.2762,2022
7909,-0.026079,26.2762,2022
7910,0.003858,26.2775,2022
7911,-0.005677,26.2775,2022
7912,0.024648,26.2781,2022
7913,0.014800,26.2781,2022
7914,-0.015502,26.2787,2022
7915,-0.040968,26.2787,2022
7916,0.032121,26.2806,2022
7917,0.042184,26.2807,2022
7918,-0.018391,26.2819,2022
7919,-0.011527,26.2819,2022
7920,-0.008062,26.2825,2022
7921,0.009170,26.2825,2022
7922,0.019790,26.2838,2022
7923,0.017447,26.2838,2022
7967,0.034968,26.3057,2022
7968,-0.041043,26.3062,2022
7969,-0.018896,26.3062,2022
7970,0.014936,26.3075,2022
7971,0.019060,26.3075,2022
7972,-0.001436,26.3081,2022
7973,-0.011639,26.3081,2022
7974,-0.006266,26.3087,2022
7975,-0.012939,26.3087,2022
7976,0.024003,26.3088,2022
7977,0.030905,26.3106,2022
7978,-0.025424,26.3106,2022
7979,-0.027295,26.3112,2022
7980,0.019771,26.3113,2022
7981,0.025761,26.3125,2022
7982,-0.006837,26.3131,2022
7983,-0.002993,26.3131,2022
7984,-0.015834,26.3137,2022
7985,-0.006551,26.3137,2022
7986,0.020224,26.3156,2022
7987,0.031022,26.3156,2022
7988,-0.019673,26.3162,2022
7989,-0.011761,26.3162,2022
7990,0.021492,26.3175,2022
7991,0.026673,26.3175,2022
7992,-0.014753,26.3181,2022
7993,-0.017190,26.3181,2022
7994,-0.003414,26.3187,2022
7995,0.010236,26.3188,2022
